OOIBase32 Version 2.0.0.6 Data File
++++++++++++++++++++++++++++++++++++
Date: 
User: Valued Ocean Optics Customer
Spectrometer Serial Number: 
Spectrometer Channel: Master
Integration Time (msec): 120
Spectra Averaged: 5
Boxcar Smoothing: 0
Correct for Electrical Dark: Enabled
Time Normalized: Disabled
Dual-beam Reference: Disabled
Reference Channel: Master
Temperature: Not acquired
Spectrometer Type: S2000
ADC Type: SERIALADC
Number of Pixels in File: 2048
Graph Title: 
>>>>>Begin Spectral Data<<<<<
339.75	0.0
340.11	0.0
340.48	-2.5
340.84	-0.4
341.20	1.3
341.56	0.6
341.93	-0.9
342.29	0.2
342.65	5.3
343.01	1.4
343.38	2.3
343.74	0.6
344.10	-0.5
344.46	-0.4
344.82	-0.3
345.19	1.4
345.55	-0.5
345.91	3.2
346.27	-0.5
346.64	-0.8
347.00	0.3
347.36	1.2
347.72	-1.5
348.08	0.6
348.44	1.3
348.81	1.2
349.17	10.5
349.53	3.4
349.89	4.5
350.25	0.8
350.62	1.3
350.98	2.0
351.34	5.9
351.70	1.6
352.06	8.5
352.42	-0.6
352.78	4.1
353.15	1.0
353.51	4.1
353.87	4.0
354.23	1.9
354.59	0.6
354.95	-1.9
355.31	3.2
355.67	-2.7
356.04	3.6
356.40	3.7
356.76	1.6
357.12	2.7
357.48	1.6
357.84	4.1
358.20	3.6
358.56	6.3
358.92	2.0
359.28	4.7
359.64	3.8
360.00	6.1
360.37	3.2
360.73	5.9
361.09	3.2
361.45	4.7
361.81	4.2
362.17	3.5
362.53	5.8
362.89	2.1
363.25	4.2
363.61	3.5
363.97	2.4
364.33	3.9
364.69	8.6
365.05	3.1
365.41	9.0
365.77	2.1
366.13	5.2
366.49	3.1
366.85	3.4
367.21	5.9
367.57	4.2
367.93	5.7
368.29	5.0
368.65	7.5
369.01	5.2
369.37	6.5
369.73	3.8
370.09	6.9
370.45	7.2
370.81	9.1
371.17	6.2
371.53	7.9
371.89	5.6
372.25	8.1
372.61	8.4
372.96	6.1
373.32	5.8
373.68	3.1
374.04	6.6
374.40	9.1
374.76	7.2
375.12	8.1
375.48	12.4
375.84	10.1
376.20	9.6
376.56	7.5
376.92	7.0
377.27	10.7
377.63	9.4
377.99	10.5
378.35	9.8
378.71	10.3
379.07	9.0
379.43	10.9
379.79	12.4
380.14	11.9
380.50	16.0
380.86	11.1
381.22	14.0
381.58	11.9
381.94	12.6
382.30	15.3
382.65	16.2
383.01	15.5
383.37	17.0
383.73	17.7
384.09	14.2
384.44	16.7
384.80	14.4
385.16	18.1
385.52	16.0
385.88	19.5
386.24	17.8
386.59	21.5
386.95	19.4
387.31	21.1
387.67	18.2
388.02	22.1
388.38	21.4
388.74	20.3
389.10	22.6
389.46	20.1
389.81	23.4
390.17	24.7
390.53	24.0
390.89	25.3
391.24	24.8
391.60	24.7
391.96	24.4
392.32	27.5
392.67	26.4
393.03	29.3
393.39	25.8
393.74	31.7
394.10	27.0
394.46	31.5
394.82	31.4
395.17	32.7
395.53	30.0
395.89	31.3
396.24	32.8
396.60	34.3
396.96	35.0
397.31	36.7
397.67	37.8
398.03	35.5
398.38	41.6
398.74	37.1
399.10	39.0
399.45	38.1
399.81	46.4
400.17	41.3
400.52	43.8
400.88	42.7
401.24	37.8
401.59	44.7
401.95	40.8
402.31	44.5
402.66	43.6
403.02	49.9
403.38	42.4
403.73	50.5
404.09	47.4
404.44	54.1
404.80	50.6
405.16	49.5
405.51	51.8
405.87	56.3
406.22	50.4
406.58	52.1
406.94	54.0
407.29	53.1
407.65	54.2
408.00	54.5
408.36	59.0
408.71	58.5
409.07	62.4
409.43	61.7
409.78	60.6
410.14	64.9
410.49	63.0
410.85	66.5
411.20	63.4
411.56	64.5
411.91	64.0
412.27	68.3
412.62	66.8
412.98	67.7
413.33	62.4
413.69	69.3
414.04	78.0
414.40	75.7
414.75	75.4
415.11	73.5
415.46	76.4
415.82	77.1
416.17	79.2
416.53	72.7
416.88	80.8
417.24	79.7
417.59	82.6
417.95	85.3
418.30	82.2
418.66	85.5
419.01	84.8
419.37	88.1
419.72	84.2
420.07	88.9
420.43	89.4
420.78	91.3
421.14	92.6
421.49	93.9
421.85	94.2
422.20	95.9
422.55	96.6
422.91	92.7
423.26	101.0
423.62	95.5
423.97	98.8
424.33	100.9
424.68	104.2
425.03	99.3
425.39	105.6
425.74	102.7
426.09	112.6
426.45	113.5
426.80	108.0
427.16	118.7
427.51	110.4
427.86	116.9
428.22	114.6
428.57	119.3
428.92	120.6
429.28	122.1
429.63	119.6
429.98	127.3
430.34	127.6
430.69	123.1
431.04	130.6
431.40	130.1
431.75	129.4
432.10	133.7
432.46	136.0
432.81	134.9
433.16	137.8
433.52	141.3
433.87	139.2
434.22	143.7
434.57	149.8
434.93	144.9
435.28	152.8
435.63	155.1
435.99	155.6
436.34	163.3
436.69	157.4
437.04	159.9
437.40	164.4
437.75	162.9
438.10	169.0
438.45	168.1
438.81	168.4
439.16	170.5
439.51	177.6
439.86	183.1
440.22	190.2
440.57	177.9
440.92	188.2
441.27	182.1
441.62	187.2
441.98	193.3
442.33	197.0
442.68	200.3
443.03	198.0
443.38	200.5
443.74	202.0
444.09	204.5
444.44	204.6
444.79	204.1
445.14	215.4
445.50	211.7
445.85	211.2
446.20	223.5
446.55	227.6
446.90	225.9
447.25	218.2
447.60	226.9
447.96	228.4
448.31	239.9
448.66	235.4
449.01	244.7
449.36	242.4
449.71	241.7
450.06	249.0
450.42	244.5
450.77	254.4
451.12	257.5
451.47	250.0
451.82	258.7
452.17	252.0
452.52	262.1
452.87	268.4
453.22	275.9
453.57	268.4
453.93	282.1
454.28	264.8
454.63	283.1
454.98	283.2
455.33	290.3
455.68	289.2
456.03	297.1
456.38	300.4
456.73	302.5
457.08	306.8
457.43	307.9
457.78	311.0
458.13	309.3
458.48	324.2
458.83	318.1
459.18	332.6
459.53	323.5
459.88	326.4
460.23	326.9
460.58	335.6
460.93	346.7
461.28	348.0
461.63	343.1
461.98	350.4
462.33	348.7
462.68	350.8
463.03	374.9
463.38	361.6
463.73	376.7
464.08	375.2
464.43	382.1
464.78	396.2
465.13	411.9
465.48	395.6
465.83	410.1
466.18	410.2
466.53	415.7
466.88	416.4
467.23	427.3
467.58	422.2
467.93	435.7
468.27	429.8
468.62	445.5
468.97	439.8
469.32	448.9
469.67	448.8
470.02	462.1
470.37	472.8
470.72	478.9
471.07	481.8
471.42	497.9
471.76	503.2
472.11	506.9
472.46	511.2
472.81	525.9
473.16	536.8
473.51	534.9
473.86	542.4
474.21	549.5
474.55	562.0
474.90	574.7
475.25	588.8
475.60	590.5
475.95	592.6
476.30	591.9
476.64	624.0
476.99	621.7
477.34	637.0
477.69	647.1
478.04	648.8
478.39	662.5
478.73	671.2
479.08	677.9
479.43	678.8
479.78	710.3
480.13	713.8
480.47	717.9
480.82	735.2
481.17	742.1
481.52	751.8
481.86	774.1
482.21	776.6
482.56	788.1
482.91	798.8
483.25	808.7
483.60	815.6
483.95	834.5
484.30	843.0
484.64	853.5
484.99	862.2
485.34	878.7
485.69	874.6
486.03	902.5
486.38	914.8
486.73	917.7
487.07	938.0
487.42	940.3
487.77	957.4
488.12	978.3
488.46	975.0
488.81	983.5
489.16	996.6
489.50	1009.5
489.85	1004.4
490.20	1032.3
490.54	1042.6
490.89	1055.3
491.24	1069.0
491.58	1066.5
491.93	1079.8
492.28	1088.5
492.62	1098.2
492.97	1105.3
493.32	1118.0
493.66	1135.5
494.01	1127.4
494.36	1150.7
494.70	1150.6
495.05	1162.3
495.39	1177.0
495.74	1192.1
496.09	1180.6
496.43	1200.3
496.78	1209.2
497.12	1217.9
497.47	1222.6
497.82	1226.5
498.16	1234.6
498.51	1247.1
498.85	1254.6
499.20	1256.7
499.55	1268.4
499.89	1277.9
500.24	1282.8
500.58	1285.5
500.93	1310.0
501.27	1307.9
501.62	1303.8
501.96	1328.3
502.31	1326.0
502.66	1328.3
503.00	1342.4
503.35	1365.5
503.69	1360.6
504.04	1363.3
504.38	1368.8
504.73	1367.9
505.07	1384.4
505.42	1395.5
505.76	1398.6
506.11	1403.9
506.45	1405.2
506.80	1410.5
507.14	1417.4
507.49	1424.9
507.83	1446.8
508.18	1451.7
508.52	1451.6
508.86	1458.5
509.21	1479.0
509.55	1471.1
509.90	1479.8
510.24	1498.3
510.59	1496.2
510.93	1503.3
511.28	1508.8
511.62	1515.9
511.96	1526.0
512.31	1533.1
512.65	1540.6
513.00	1549.9
513.34	1546.8
513.69	1560.7
514.03	1568.6
514.37	1571.5
514.72	1588.6
515.06	1598.7
515.41	1596.8
515.75	1602.3
516.09	1613.2
516.44	1624.1
516.78	1619.4
517.12	1641.5
517.47	1640.2
517.81	1640.1
518.16	1643.2
518.50	1672.9
518.84	1674.0
519.19	1685.5
519.53	1678.8
519.87	1688.5
520.22	1695.8
520.56	1698.9
520.90	1706.0
521.25	1721.1
521.59	1710.8
521.93	1730.7
522.28	1731.8
522.62	1738.9
522.96	1761.0
523.30	1743.1
523.65	1755.4
523.99	1752.9
524.33	1760.0
524.68	1756.9
525.02	1779.0
525.36	1773.7
525.70	1782.8
526.05	1794.9
526.39	1781.6
526.73	1789.9
527.08	1806.0
527.42	1804.1
527.76	1810.8
528.10	1814.3
528.44	1818.8
528.79	1806.7
529.13	1828.6
529.47	1834.9
529.81	1845.4
530.16	1841.5
530.50	1834.4
530.84	1844.3
531.18	1853.8
531.52	1836.1
531.87	1860.6
532.21	1853.5
532.55	1850.6
532.89	1862.5
533.23	1860.8
533.58	1863.1
533.92	1870.6
534.26	1884.1
534.60	1876.8
534.94	1881.1
535.28	1873.6
535.63	1876.1
535.97	1876.4
536.31	1886.5
536.65	1884.4
536.99	1897.3
537.33	1901.2
537.67	1901.9
538.02	1905.0
538.36	1913.5
538.70	1907.4
539.04	1909.5
539.38	1929.4
539.72	1907.5
540.06	1936.6
540.40	1928.3
540.74	1926.6
541.09	1920.5
541.43	1927.2
541.77	1937.7
542.11	1939.6
542.45	1952.7
542.79	1942.6
543.13	1962.3
543.47	1960.2
543.81	1969.1
544.15	1959.8
544.49	1963.9
544.83	1992.2
545.17	1969.5
545.51	1983.0
545.85	1994.3
546.19	1988.4
546.53	1995.5
546.88	1998.0
547.22	1987.3
547.56	1999.8
547.90	2008.9
548.24	2025.6
548.58	2017.9
548.92	2017.8
549.26	2026.9
549.60	2035.8
549.94	2053.1
550.28	2034.0
550.62	2034.1
550.95	2061.4
551.29	2074.9
551.63	2086.2
551.97	2076.1
552.31	2081.8
552.65	2099.9
552.99	2082.6
553.33	2099.1
553.67	2104.8
554.01	2121.1
554.35	2113.2
554.69	2124.9
555.03	2134.4
555.37	2136.5
555.71	2137.2
556.05	2126.3
556.39	2160.8
556.72	2143.3
557.06	2167.2
557.40	2167.3
557.74	2171.4
558.08	2187.9
558.42	2176.4
558.76	2187.7
559.10	2191.2
559.44	2198.7
559.77	2197.4
560.11	2211.7
560.45	2220.8
560.79	2214.9
561.13	2230.4
561.47	2240.1
561.81	2234.4
562.14	2233.3
562.48	2236.2
562.82	2244.1
563.16	2259.0
563.50	2263.7
563.84	2276.8
564.17	2268.3
564.51	2287.0
564.85	2270.1
565.19	2312.0
565.53	2302.9
565.86	2288.0
566.20	2294.3
566.54	2298.2
566.88	2307.5
567.22	2319.6
567.55	2322.1
567.89	2325.8
568.23	2318.7
568.57	2321.6
568.90	2322.3
569.24	2318.4
569.58	2347.9
569.92	2342.4
570.25	2340.7
570.59	2328.6
570.93	2346.5
571.27	2344.4
571.60	2356.3
571.94	2350.8
572.28	2338.7
572.62	2351.2
572.95	2346.9
573.29	2335.0
573.63	2359.7
573.96	2353.2
574.30	2359.3
574.64	2364.8
574.97	2371.5
575.31	2388.0
575.65	2373.5
575.98	2384.4
576.32	2388.1
576.66	2369.8
576.99	2386.3
577.33	2397.0
577.67	2400.1
578.00	2411.8
578.34	2402.3
578.68	2413.0
579.01	2428.1
579.35	2430.2
579.69	2422.3
580.02	2450.4
580.36	2439.7
580.70	2440.8
581.03	2464.9
581.37	2475.6
581.70	2485.9
582.04	2492.8
582.38	2498.1
582.71	2510.4
583.05	2521.7
583.38	2518.8
583.72	2555.3
584.05	2555.8
584.39	2562.7
584.73	2577.0
585.06	2600.7
585.40	2614.8
585.73	2615.9
586.07	2606.8
586.40	2649.7
586.74	2663.6
587.08	2674.7
587.41	2665.8
587.75	2682.5
588.08	2698.2
588.42	2720.5
588.75	2729.0
589.09	2745.5
589.42	2737.4
589.76	2770.9
590.09	2773.2
590.43	2783.5
590.76	2813.6
591.10	2813.1
591.43	2836.0
591.77	2845.9
592.10	2846.2
592.44	2879.7
592.77	2875.2
593.11	2901.5
593.44	2932.2
593.77	2928.7
594.11	2923.6
594.44	2957.1
594.78	2964.0
595.11	2976.3
595.45	2968.0
595.78	3005.5
596.12	3009.6
596.45	3013.5
596.78	3025.2
597.12	3043.9
597.45	3060.0
597.79	3058.7
598.12	3076.8
598.45	3083.5
598.79	3109.0
599.12	3115.9
599.46	3125.2
599.79	3143.5
600.12	3149.6
600.46	3176.5
600.79	3169.2
601.13	3207.7
601.46	3199.8
601.79	3221.3
602.13	3207.4
602.46	3219.7
602.79	3231.8
603.13	3262.9
603.46	3248.4
603.79	3266.7
604.13	3276.0
604.46	3281.9
604.79	3309.8
605.13	3293.1
605.46	3311.2
605.79	3307.7
606.13	3315.0
606.46	3344.5
606.79	3356.8
607.12	3355.5
607.46	3374.6
607.79	3356.9
608.12	3392.8
608.46	3374.9
608.79	3392.0
609.12	3392.3
609.45	3402.2
609.79	3426.5
610.12	3429.2
610.45	3429.1
610.78	3435.2
611.12	3441.9
611.45	3464.0
611.78	3458.1
612.11	3464.8
612.45	3469.7
612.78	3480.6
613.11	3460.5
613.44	3495.2
613.78	3479.7
614.11	3490.4
614.44	3521.3
614.77	3512.4
615.10	3496.3
615.43	3504.6
615.77	3529.5
616.10	3523.6
616.43	3518.7
616.76	3531.4
617.09	3552.5
617.43	3533.6
617.76	3551.7
618.09	3535.2
618.42	3563.7
618.75	3554.8
619.08	3569.3
619.41	3556.0
619.75	3561.1
620.08	3555.2
620.41	3570.5
620.74	3564.4
621.07	3554.1
621.40	3560.8
621.73	3573.3
622.06	3578.8
622.40	3563.7
622.73	3604.6
623.06	3585.9
623.39	3587.0
623.72	3578.9
624.05	3584.0
624.38	3582.5
624.71	3588.2
625.04	3594.7
625.37	3588.4
625.70	3585.1
626.03	3597.0
626.36	3585.1
626.70	3578.4
627.03	3597.1
627.36	3601.8
627.69	3589.1
628.02	3592.8
628.35	3589.9
628.68	3563.2
629.01	3590.1
629.34	3588.2
629.67	3583.1
630.00	3600.2
630.33	3604.1
630.66	3599.0
630.99	3598.9
631.32	3581.6
631.65	3581.1
631.98	3609.8
632.31	3569.1
632.64	3593.0
632.97	3589.3
633.30	3600.4
633.63	3565.3
633.96	3569.0
634.28	3570.5
634.61	3567.4
634.94	3582.7
635.27	3551.2
635.60	3583.7
635.93	3572.0
636.26	3548.3
636.59	3564.6
636.92	3552.7
637.25	3570.6
637.58	3549.1
637.91	3574.2
638.24	3564.3
638.57	3555.8
638.89	3588.1
639.22	3560.8
639.55	3546.3
639.88	3558.6
640.21	3552.9
640.54	3553.8
640.87	3529.5
641.20	3545.8
641.52	3550.9
641.85	3533.0
642.18	3527.1
642.51	3527.6
642.84	3538.7
643.17	3526.0
643.49	3531.7
643.82	3542.6
644.15	3528.9
644.48	3520.8
644.81	3521.3
645.14	3521.8
645.46	3526.7
645.79	3510.6
646.12	3525.9
646.45	3494.4
646.78	3514.9
647.10	3508.8
647.43	3516.7
647.76	3495.0
648.09	3520.9
648.42	3503.2
648.74	3517.5
649.07	3513.4
649.40	3497.1
649.73	3492.6
650.05	3509.5
650.38	3488.0
650.71	3505.7
651.04	3496.2
651.36	3494.7
651.69	3496.6
652.02	3490.9
652.34	3473.8
652.67	3493.1
653.00	3487.6
653.33	3481.9
653.65	3485.0
653.98	3493.7
654.31	3466.4
654.63	3480.9
654.96	3477.6
655.29	3468.1
655.61	3487.8
655.94	3457.5
656.27	3447.2
656.59	3474.9
656.92	3457.0
657.25	3469.1
657.57	3471.2
657.90	3467.7
658.23	3447.4
658.55	3483.3
658.88	3469.6
659.21	3470.9
659.53	3461.0
659.86	3459.5
660.19	3437.2
660.51	3433.7
660.84	3459.8
661.16	3442.9
661.49	3431.2
661.82	3461.1
662.14	3443.4
662.47	3431.3
662.79	3437.6
663.12	3448.9
663.44	3431.4
663.77	3419.5
664.10	3444.0
664.42	3421.7
664.75	3409.2
665.07	3436.9
665.40	3400.8
665.72	3429.3
666.05	3406.2
666.37	3418.7
666.70	3404.8
667.03	3417.7
667.35	3406.4
667.68	3410.9
668.00	3398.4
668.33	3408.3
668.65	3407.2
668.98	3393.1
669.30	3399.2
669.63	3395.1
669.95	3382.8
670.28	3400.3
670.60	3386.4
670.93	3392.9
671.25	3373.2
671.58	3389.3
671.90	3366.8
672.22	3370.1
672.55	3363.0
672.87	3371.7
673.20	3368.0
673.52	3359.1
673.85	3351.2
674.17	3350.3
674.50	3342.2
674.82	3347.7
675.14	3347.2
675.47	3328.5
675.79	3350.4
676.12	3323.5
676.44	3337.0
676.76	3340.3
677.09	3310.4
677.41	3292.5
677.74	3309.6
678.06	3317.9
678.38	3296.4
678.71	3301.1
679.03	3275.6
679.36	3286.1
679.68	3270.8
680.00	3270.7
680.33	3283.4
680.65	3251.7
680.97	3268.6
681.30	3263.7
681.62	3245.0
681.94	3250.7
682.27	3244.8
682.59	3250.9
682.91	3233.6
683.24	3233.7
683.56	3226.6
683.88	3215.3
684.21	3214.6
684.53	3223.3
684.85	3216.0
685.17	3211.7
685.50	3190.0
685.82	3206.1
686.14	3174.6
686.47	3193.3
686.79	3159.2
687.11	3158.5
687.43	3179.2
687.76	3156.3
688.08	3158.8
688.40	3146.5
688.72	3144.0
689.05	3119.5
689.37	3124.8
689.69	3103.5
690.01	3117.6
690.34	3107.9
690.66	3110.0
690.98	3092.1
691.30	3092.2
691.62	3067.5
691.95	3054.4
692.27	3078.7
692.59	3058.2
692.91	3058.7
693.23	3058.8
693.56	3031.3
693.88	3043.4
694.20	3050.1
694.52	3026.8
694.84	3043.1
695.16	3015.6
695.48	3023.5
695.81	3009.8
696.13	2996.5
696.45	3000.8
696.77	2996.5
697.09	2976.2
697.41	2971.9
697.73	2974.4
698.06	2968.3
698.38	2953.8
698.70	2947.3
699.02	2964.6
699.34	2939.7
699.66	2940.2
699.98	2933.7
700.30	2909.2
700.62	2921.9
700.94	2892.2
701.27	2902.1
701.59	2890.6
701.91	2879.9
702.23	2893.4
702.55	2882.7
702.87	2873.4
703.19	2847.5
703.51	2859.2
703.83	2869.7
704.15	2864.8
704.47	2838.7
704.79	2835.0
705.11	2812.5
705.43	2808.8
705.75	2804.3
706.07	2787.0
706.39	2794.1
706.71	2805.8
707.03	2778.3
707.35	2775.0
707.67	2762.1
707.99	2763.2
708.31	2754.1
708.63	2772.0
708.95	2755.5
709.27	2758.4
709.59	2756.1
709.91	2740.8
710.23	2720.3
710.55	2736.0
710.87	2732.1
711.19	2722.4
711.51	2704.3
711.83	2720.0
712.15	2704.7
712.46	2693.0
712.78	2658.5
713.10	2666.8
713.42	2670.5
713.74	2663.4
714.06	2664.7
714.38	2652.6
714.70	2652.3
715.02	2647.4
715.34	2645.9
715.65	2652.0
715.97	2618.3
716.29	2625.2
716.61	2602.5
716.93	2609.4
717.25	2609.5
717.57	2603.8
717.88	2589.1
718.20	2578.4
718.52	2573.9
718.84	2568.6
719.16	2573.3
719.48	2564.0
719.79	2558.5
720.11	2534.2
720.43	2548.3
720.75	2552.6
721.07	2528.1
721.39	2541.2
721.70	2523.1
722.02	2508.6
722.34	2511.1
722.66	2506.6
722.97	2501.7
723.29	2495.6
723.61	2492.1
723.93	2484.6
724.25	2470.7
724.56	2476.6
724.88	2464.9
725.20	2470.0
725.52	2464.5
725.83	2447.0
726.15	2439.9
726.47	2435.2
726.78	2444.1
727.10	2419.0
727.42	2422.5
727.74	2414.0
728.05	2421.7
728.37	2415.2
728.69	2411.5
729.00	2387.6
729.32	2393.1
729.64	2376.8
729.96	2389.7
730.27	2359.2
730.59	2361.3
730.91	2356.4
731.22	2339.1
731.54	2342.2
731.86	2355.3
732.17	2337.6
732.49	2341.9
732.80	2333.6
733.12	2324.5
733.44	2310.6
733.75	2312.9
734.07	2299.4
734.39	2303.1
734.70	2300.4
735.02	2278.1
735.33	2287.2
735.65	2258.3
735.97	2277.0
736.28	2263.9
736.60	2253.4
736.91	2250.1
737.23	2250.4
737.55	2237.9
737.86	2229.6
738.18	2224.5
738.49	2208.2
738.81	2223.5
739.12	2211.4
739.44	2209.5
739.76	2197.0
740.07	2192.9
740.39	2190.6
740.70	2174.7
741.02	2162.0
741.33	2187.3
741.65	2165.2
741.96	2153.1
742.28	2181.0
742.59	2142.1
742.91	2141.0
743.22	2122.7
743.54	2106.2
743.85	2116.9
744.17	2105.4
744.48	2107.3
744.80	2098.2
745.11	2105.5
745.43	2085.2
745.74	2088.5
746.06	2085.6
746.37	2075.9
746.68	2063.0
747.00	2051.3
747.31	2044.6
747.63	2040.3
747.94	2029.4
748.26	2032.3
748.57	2026.4
748.88	2016.7
749.20	2012.0
749.51	2001.3
749.83	2004.6
750.14	1995.9
750.45	1975.4
750.77	1988.5
751.08	1976.6
751.40	1973.3
751.71	1957.2
752.02	1946.7
752.34	1959.0
752.65	1945.9
752.96	1935.6
753.28	1940.7
753.59	1918.0
753.91	1925.1
754.22	1918.2
754.53	1906.7
754.85	1896.0
755.16	1887.7
755.47	1892.4
755.79	1877.5
756.10	1869.8
756.41	1862.7
756.72	1860.0
757.04	1846.7
757.35	1843.2
757.66	1834.9
757.98	1841.2
758.29	1826.3
758.60	1814.4
758.92	1805.9
759.23	1804.4
759.54	1807.3
759.85	1798.2
760.17	1788.1
760.48	1779.0
760.79	1771.3
761.10	1756.8
761.42	1761.7
761.73	1740.6
762.04	1746.3
762.35	1741.6
762.66	1730.3
762.98	1721.8
763.29	1719.9
763.60	1715.6
763.91	1716.9
764.23	1701.2
764.54	1701.9
764.85	1703.2
765.16	1675.1
765.47	1668.6
765.78	1658.7
766.10	1661.8
766.41	1646.9
766.72	1655.6
767.03	1641.5
767.34	1631.0
767.65	1638.5
767.97	1628.8
768.28	1616.7
768.59	1619.2
768.90	1587.9
769.21	1590.0
769.52	1588.9
769.83	1581.0
770.14	1579.1
770.46	1575.6
770.77	1571.3
771.08	1555.2
771.39	1552.3
771.70	1536.4
772.01	1543.3
772.32	1527.4
772.63	1529.9
772.94	1532.4
773.25	1527.7
773.56	1517.8
773.88	1512.5
774.19	1507.8
774.50	1493.7
774.81	1494.2
775.12	1491.5
775.43	1479.8
775.74	1472.5
776.05	1488.8
776.36	1475.3
776.67	1453.2
776.98	1472.9
777.29	1457.0
777.60	1452.3
777.91	1440.0
778.22	1449.7
778.53	1439.4
778.84	1430.9
779.15	1439.0
779.46	1434.3
779.77	1434.6
780.08	1423.5
780.39	1419.4
780.70	1418.1
781.01	1417.6
781.32	1403.9
781.63	1404.8
781.94	1411.1
782.25	1401.6
782.55	1396.3
782.86	1400.6
783.17	1391.5
783.48	1383.6
783.79	1386.3
784.10	1380.4
784.41	1377.3
784.72	1375.6
785.03	1373.9
785.34	1372.0
785.65	1357.7
785.95	1353.6
786.26	1370.5
786.57	1355.2
786.88	1353.1
787.19	1352.2
787.50	1350.7
787.81	1351.2
788.12	1343.3
788.42	1331.8
788.73	1326.3
789.04	1316.6
789.35	1316.1
789.66	1328.2
789.97	1313.1
790.27	1311.4
790.58	1312.7
790.89	1308.0
791.20	1304.3
791.51	1297.0
791.81	1294.5
792.12	1288.8
792.43	1289.5
792.74	1285.0
793.05	1281.3
793.35	1277.6
793.66	1269.1
793.97	1264.0
794.28	1259.3
794.58	1253.6
794.89	1254.7
795.20	1256.0
795.51	1248.3
795.81	1244.6
796.12	1231.9
796.43	1242.6
796.74	1225.9
797.04	1220.4
797.35	1225.7
797.66	1212.8
797.96	1211.7
798.27	1217.2
798.58	1219.3
798.89	1207.6
799.19	1202.5
799.50	1205.2
799.81	1198.3
800.11	1186.2
800.42	1180.1
800.73	1183.4
801.03	1175.9
801.34	1178.6
801.65	1171.7
801.95	1162.2
802.26	1156.5
802.57	1147.0
802.87	1150.7
803.18	1151.8
803.48	1152.9
803.79	1143.0
804.10	1140.5
804.40	1127.8
804.71	1131.9
805.02	1121.8
805.32	1111.9
805.63	1116.2
805.93	1116.9
806.24	1117.2
806.55	1119.9
806.85	1097.2
807.16	1095.7
807.46	1095.6
807.77	1082.9
808.07	1090.4
808.38	1081.9
808.68	1076.6
808.99	1083.5
809.30	1065.0
809.60	1065.1
809.91	1064.6
810.21	1066.7
810.52	1056.8
810.82	1047.3
811.13	1055.2
811.43	1039.1
811.74	1032.2
812.04	1037.3
812.35	1033.0
812.65	1018.5
812.96	1021.8
813.26	1014.7
813.57	1008.4
813.87	1006.3
814.18	1011.6
814.48	1003.5
814.79	998.2
815.09	995.1
815.39	987.6
815.70	990.1
816.00	991.2
816.31	983.9
816.61	983.6
816.92	971.9
817.22	959.4
817.52	974.5
817.83	972.4
818.13	952.7
818.44	957.2
818.74	953.9
819.04	948.2
819.35	948.5
819.65	938.8
819.96	938.3
820.26	927.6
820.56	925.1
820.87	926.6
821.17	929.7
821.47	919.8
821.78	920.1
822.08	920.4
822.39	903.3
822.69	902.4
822.99	909.3
823.30	901.4
823.60	896.5
823.90	903.8
824.21	884.9
824.51	886.4
824.81	879.9
825.11	878.6
825.42	878.1
825.72	872.0
826.02	874.1
826.33	861.0
826.63	868.3
826.93	857.8
827.23	858.3
827.54	856.6
827.84	846.5
828.14	849.4
828.44	851.3
828.75	836.4
829.05	847.7
829.35	830.0
829.65	834.1
829.96	820.6
830.26	827.3
830.56	839.8
830.86	821.3
831.17	817.2
831.47	817.5
831.77	806.8
832.07	805.3
832.37	805.6
832.68	797.7
832.98	797.6
833.28	796.1
833.58	793.8
833.88	783.5
834.18	784.8
834.49	785.1
834.79	774.6
835.09	775.9
835.39	776.4
835.69	776.7
835.99	771.0
836.29	763.7
836.60	771.4
836.90	764.1
837.20	755.8
837.50	753.5
837.80	753.8
838.10	749.9
838.40	743.6
838.70	740.5
839.00	744.4
839.31	739.5
839.61	733.2
839.91	736.9
840.21	732.8
840.51	732.1
840.81	729.4
841.11	727.9
841.41	718.8
841.71	720.3
842.01	716.2
842.31	709.5
842.61	715.4
842.91	708.9
843.21	706.0
843.51	703.1
843.81	699.4
844.11	699.9
844.41	692.0
844.71	694.1
845.01	688.4
845.31	686.3
845.61	677.6
845.91	677.3
846.21	679.0
846.51	688.5
846.81	677.0
847.11	671.7
847.41	669.4
847.71	663.1
848.01	666.2
848.31	658.5
848.61	659.4
848.91	657.9
849.21	652.8
849.51	665.3
849.81	649.6
850.11	651.7
850.40	645.8
850.70	646.7
851.00	643.8
851.30	638.7
851.60	638.0
851.90	640.7
852.20	632.6
852.50	626.7
852.80	631.4
853.10	622.1
853.39	624.8
853.69	616.5
853.99	613.4
854.29	611.1
854.59	613.0
854.89	607.7
855.18	609.6
855.48	603.3
855.78	599.0
856.08	601.5
856.38	594.4
856.68	605.7
856.97	594.2
857.27	590.9
857.57	587.6
857.87	587.1
858.17	588.2
858.46	579.9
858.76	584.0
859.06	571.5
859.36	577.6
859.66	577.9
859.95	574.4
860.25	569.3
860.55	564.0
860.85	563.7
861.14	559.6
861.44	564.1
861.74	563.8
862.04	550.7
862.33	551.0
862.63	549.7
862.93	545.0
863.22	543.9
863.52	539.2
863.82	542.3
864.12	540.4
864.41	541.1
864.71	527.4
865.01	535.9
865.30	528.2
865.60	527.7
865.90	527.0
866.19	522.3
866.49	524.6
866.79	513.9
867.08	515.8
867.38	510.3
867.68	504.4
867.97	501.7
868.27	504.6
868.56	502.7
868.86	500.2
869.16	502.5
869.45	497.0
869.75	492.3
870.05	480.8
870.34	492.7
870.64	486.0
870.93	481.9
871.23	482.0
871.53	476.3
871.82	473.4
872.12	475.3
872.41	475.2
872.71	475.7
873.00	467.8
873.30	466.7
873.59	460.0
873.89	459.9
874.19	461.0
874.48	462.9
874.78	451.0
875.07	454.3
875.37	448.6
875.66	444.9
875.96	450.0
876.25	441.1
876.55	446.6
876.84	435.7
877.14	442.6
877.43	439.7
877.73	432.6
878.02	430.3
878.32	429.2
878.61	424.1
878.91	420.2
879.20	423.3
879.49	419.0
879.79	419.7
880.08	416.6
880.38	405.5
880.67	405.6
880.97	407.9
881.26	401.8
881.56	406.1
881.85	404.2
882.14	397.5
882.44	402.4
882.73	394.5
883.03	392.4
883.32	386.7
883.61	386.0
883.91	385.5
884.20	381.8
884.50	383.3
884.79	377.8
885.08	376.7
885.38	377.8
885.67	373.3
885.96	367.0
886.26	369.9
886.55	360.4
886.84	359.7
887.14	357.6
887.43	359.3
887.72	358.8
888.02	356.3
888.31	351.6
888.60	349.1
888.90	348.4
889.19	343.9
889.48	345.6
889.77	343.1
890.07	343.2
890.36	342.7
890.65	342.0
890.95	335.5
891.24	333.4
891.53	328.7
891.82	326.4
892.12	326.7
892.41	323.6
892.70	323.5
892.99	313.0
893.29	318.5
893.58	317.0
893.87	319.1
894.16	312.8
894.45	311.9
894.75	309.4
895.04	307.9
895.33	302.6
895.62	300.1
895.91	307.2
896.21	296.3
896.50	303.2
896.79	294.1
897.08	293.8
897.37	297.1
897.66	296.0
897.96	291.7
898.25	287.0
898.54	285.1
898.83	284.6
899.12	282.3
899.41	283.0
899.70	283.7
900.00	283.4
900.29	283.5
900.58	273.0
900.87	275.7
901.16	270.2
901.45	274.5
901.74	272.4
902.03	267.9
902.32	271.4
902.62	270.3
902.91	264.0
903.20	267.9
903.49	261.8
903.78	264.9
904.07	262.8
904.36	256.9
904.65	262.2
904.94	261.3
905.23	258.6
905.52	251.1
905.81	254.4
906.10	259.3
906.39	251.4
906.68	252.9
906.97	247.0
907.26	252.7
907.55	244.6
907.84	248.1
908.13	250.2
908.42	244.9
908.71	249.4
909.00	245.1
909.29	241.2
909.58	242.9
909.87	242.4
910.16	232.5
910.45	237.6
910.74	234.3
911.03	235.6
911.32	236.5
911.61	233.8
911.90	231.5
912.19	226.4
912.47	232.7
912.76	229.4
913.05	229.1
913.34	220.8
913.63	222.9
913.92	224.6
914.21	223.9
914.50	219.4
914.79	223.7
915.07	215.8
915.36	223.5
915.65	219.0
915.94	217.5
916.23	221.2
916.52	219.5
916.81	225.0
917.09	215.9
917.38	217.0
917.67	211.9
917.96	207.0
918.25	212.5
918.54	203.6
918.82	208.3
919.11	206.4
919.40	208.9
919.69	202.8
919.98	208.9
920.26	203.2
920.55	203.9
920.84	197.2
921.13	197.3
921.42	197.0
921.70	199.5
921.99	197.4
922.28	197.5
922.57	196.4
922.85	193.9
923.14	192.0
923.43	186.9
923.71	195.4
924.00	189.5
924.29	190.8
924.58	187.3
924.86	189.6
925.15	191.9
925.44	187.0
925.72	182.9
926.01	181.0
926.30	181.7
926.59	180.2
926.87	182.3
927.16	178.2
927.45	178.5
927.73	171.6
928.02	172.7
928.31	172.4
928.59	175.9
928.88	170.8
929.16	172.5
929.45	170.6
929.74	167.5
930.02	165.8
930.31	163.7
930.60	169.8
930.88	164.5
931.17	160.6
931.45	163.7
931.74	165.6
932.03	159.5
932.31	158.0
932.60	156.5
932.88	159.0
933.17	153.9
933.45	156.6
933.74	156.9
934.03	151.8
934.31	154.7
934.60	145.6
934.88	158.3
935.17	154.0
935.45	151.1
935.74	144.0
936.02	146.5
936.31	147.6
936.59	147.3
936.88	145.8
937.16	144.7
937.45	145.0
937.73	145.1
938.02	145.0
938.30	148.3
938.59	140.0
938.87	137.9
939.16	136.2
939.44	141.3
939.73	132.2
940.01	137.5
940.30	133.4
940.58	136.9
940.86	133.4
941.15	128.3
941.43	126.2
941.72	131.3
942.00	128.0
942.29	126.9
942.57	127.6
942.85	126.5
943.14	125.0
943.42	123.7
943.71	122.4
943.99	120.3
944.27	121.0
944.56	119.5
944.84	118.6
945.12	121.7
945.41	116.6
945.69	118.9
945.98	115.4
946.26	116.5
946.54	110.8
946.83	111.7
947.11	114.0
947.39	110.1
947.68	110.8
947.96	110.3
948.24	109.4
948.53	109.9
948.81	107.2
949.09	109.1
949.37	103.4
949.66	103.5
949.94	106.2
950.22	105.3
950.51	105.0
950.79	102.9
951.07	102.8
951.35	98.5
951.64	96.4
951.92	98.7
952.20	95.4
952.48	93.5
952.77	97.6
953.05	93.5
953.33	91.4
953.61	94.3
953.89	91.0
954.18	91.1
954.46	92.2
954.74	91.1
955.02	86.8
955.30	86.1
955.59	86.8
955.87	87.3
956.15	83.0
956.43	84.1
956.71	85.8
957.00	87.5
957.28	81.4
957.56	83.9
957.84	81.2
958.12	79.7
958.40	79.4
958.68	77.7
958.97	79.2
959.25	75.1
959.53	81.4
959.81	76.5
960.09	78.2
960.37	77.3
960.65	80.4
960.93	76.9
961.21	73.0
961.49	76.5
961.78	74.0
962.06	72.5
962.34	67.6
962.62	74.5
962.90	70.4
963.18	69.9
963.46	70.8
963.74	69.3
964.02	68.4
964.30	65.7
964.58	68.6
964.86	66.7
965.14	67.4
965.42	64.1
965.70	67.2
965.98	65.1
966.26	63.8
966.54	61.1
966.82	61.0
967.10	61.3
967.38	62.2
967.66	66.1
967.94	58.0
968.22	62.3
968.50	56.6
968.78	59.1
969.06	59.4
969.34	59.7
969.62	60.2
969.90	58.7
970.18	57.6
970.46	58.1
970.73	55.6
971.01	56.7
971.29	59.8
971.57	55.3
971.85	60.4
972.13	54.3
972.41	54.2
972.69	54.7
972.97	52.2
973.24	51.5
973.52	51.4
973.80	52.3
974.08	48.0
974.36	52.7
974.64	49.4
974.92	52.3
975.19	47.8
975.47	49.3
975.75	46.0
976.03	51.1
976.31	47.0
976.59	47.9
976.86	50.0
977.14	44.3
977.42	47.0
977.70	44.7
977.98	48.2
978.25	41.7
978.53	44.0
978.81	41.9
979.09	45.0
979.37	45.1
979.64	45.6
979.92	45.1
980.20	42.8
980.48	42.5
980.75	41.6
981.03	43.1
981.31	41.6
981.58	38.9
981.86	38.4
982.14	41.7
982.42	40.6
982.69	42.5
982.97	41.6
983.25	39.5
983.52	38.6
983.80	38.5
984.08	37.6
984.35	38.3
984.63	38.2
984.91	37.7
985.18	39.0
985.46	34.1
985.74	37.4
986.01	35.1
986.29	36.0
986.57	34.9
986.84	36.4
987.12	39.3
987.40	32.8
987.67	39.3
987.95	33.0
988.22	36.1
988.50	28.8
988.78	34.9
989.05	28.8
989.33	29.5
989.60	32.6
989.88	31.3
990.16	29.8
990.43	30.9
990.71	32.6
990.98	27.3
991.26	31.0
991.53	28.7
991.81	30.2
992.08	27.7
992.36	26.4
992.64	29.5
992.91	27.2
993.19	27.3
993.46	28.4
993.74	31.3
994.01	25.0
994.29	26.9
994.56	24.8
994.84	25.1
995.11	26.6
995.39	26.9
995.66	23.4
995.93	27.3
996.21	24.0
996.48	22.5
996.76	26.0
>>>>>End Spectral Data<<<<<
