OOIBase32 Version 2.0.0.6 Data File
++++++++++++++++++++++++++++++++++++
Date: 
User: Valued Ocean Optics Customer
Spectrometer Serial Number: 
Spectrometer Channel: Master
Integration Time (msec): 900
Spectra Averaged: 5
Boxcar Smoothing: 0
Correct for Electrical Dark: Enabled
Time Normalized: Disabled
Dual-beam Reference: Disabled
Reference Channel: Master
Temperature: Not acquired
Spectrometer Type: S2000
ADC Type: SERIALADC
Number of Pixels in File: 2048
Graph Title: 
>>>>>Begin Spectral Data<<<<<
339.75	0.0
340.11	0.0
340.48	-2.8
340.84	-3.6
341.20	-3.6
341.56	16.8
341.93	0.8
342.29	0.8
342.65	32.0
343.01	6.4
343.38	-0.2
343.74	1.2
344.10	4.2
344.46	1.6
344.82	2.6
345.19	-2.2
345.55	4.2
345.91	-2.6
346.27	1.2
346.64	-3.0
347.00	7.0
347.36	1.6
347.72	2.4
348.08	0.0
348.44	3.4
348.81	9.8
349.17	50.2
349.53	17.4
349.89	13.0
350.25	5.6
350.62	5.2
350.98	9.8
351.34	15.6
351.70	9.6
352.06	34.8
352.42	8.2
352.78	10.8
353.15	6.8
353.51	17.2
353.87	5.2
354.23	8.4
354.59	5.0
354.95	15.4
355.31	9.4
355.67	13.0
356.04	9.6
356.40	34.0
356.76	9.4
357.12	8.8
357.48	8.2
357.84	6.4
358.20	22.8
358.56	18.0
358.92	8.6
359.28	7.4
359.64	10.4
360.00	15.2
360.37	15.2
360.73	17.8
361.09	10.6
361.45	12.6
361.81	10.4
362.17	13.4
362.53	9.6
362.89	17.2
363.25	10.6
363.61	20.8
363.97	18.2
364.33	36.8
364.69	48.0
365.05	31.0
365.41	47.8
365.77	19.0
366.13	16.0
366.49	19.4
366.85	14.8
367.21	15.8
367.57	24.2
367.93	28.2
368.29	22.8
368.65	20.8
369.01	24.4
369.37	17.4
369.73	19.4
370.09	22.0
370.45	28.4
370.81	30.8
371.17	25.2
371.53	37.0
371.89	27.4
372.25	49.0
372.61	37.6
372.96	28.0
373.32	24.2
373.68	24.2
374.04	28.4
374.40	56.6
374.76	30.8
375.12	31.8
375.48	58.0
375.84	31.8
376.20	31.2
376.56	31.0
376.92	36.8
377.27	35.6
377.63	39.4
377.99	36.0
378.35	41.4
378.71	38.8
379.07	32.2
379.43	36.0
379.79	34.4
380.14	45.6
380.50	46.0
380.86	48.2
381.22	54.8
381.58	46.2
381.94	43.4
382.30	51.2
382.65	46.8
383.01	56.8
383.37	58.2
383.73	64.8
384.09	52.0
384.44	58.4
384.80	57.4
385.16	56.2
385.52	62.2
385.88	58.0
386.24	61.4
386.59	82.4
386.95	73.4
387.31	68.4
387.67	68.4
388.02	98.0
388.38	80.0
388.74	75.2
389.10	76.0
389.46	81.0
389.81	80.0
390.17	102.8
390.53	83.6
390.89	91.8
391.24	89.2
391.60	94.8
391.96	87.2
392.32	89.4
392.67	101.8
393.03	104.2
393.39	96.2
393.74	101.2
394.10	99.4
394.46	101.4
394.82	112.0
395.17	109.0
395.53	108.0
395.89	112.2
396.24	119.6
396.60	122.0
396.96	116.0
397.31	115.8
397.67	125.4
398.03	125.2
398.38	127.0
398.74	131.2
399.10	135.2
399.45	133.4
399.81	176.4
400.17	138.8
400.52	147.2
400.88	151.0
401.24	146.8
401.59	144.4
401.95	147.4
402.31	150.8
402.66	158.2
403.02	158.0
403.38	153.4
403.73	168.4
404.09	163.6
404.44	175.0
404.80	169.2
405.16	167.6
405.51	170.6
405.87	176.4
406.22	174.4
406.58	174.0
406.94	179.6
407.29	187.8
407.65	183.2
408.00	200.4
408.36	194.6
408.71	202.8
409.07	206.2
409.43	206.6
409.78	211.4
410.14	206.2
410.49	221.4
410.85	214.8
411.20	225.8
411.56	218.0
411.91	220.6
412.27	214.2
412.62	221.8
412.98	231.4
413.33	230.4
413.69	245.0
414.04	272.2
414.40	270.2
414.75	245.4
415.11	256.6
415.46	247.8
415.82	263.8
416.17	270.0
416.53	254.8
416.88	268.0
417.24	258.8
417.59	270.6
417.95	276.6
418.30	269.8
418.66	282.4
419.01	272.4
419.37	281.4
419.72	287.4
420.07	289.4
420.43	297.4
420.78	291.6
421.14	306.0
421.49	304.8
421.85	305.4
422.20	303.4
422.55	313.6
422.91	307.6
423.26	357.0
423.62	312.2
423.97	323.8
424.33	329.8
424.68	331.4
425.03	332.0
425.39	343.6
425.74	348.4
426.09	354.8
426.45	360.2
426.80	361.8
427.16	381.6
427.51	364.8
427.86	366.2
428.22	368.4
428.57	377.8
428.92	384.0
429.28	396.6
429.63	384.2
429.98	390.8
430.34	394.4
430.69	388.8
431.04	406.0
431.40	402.2
431.75	410.4
432.10	407.2
432.46	429.8
432.81	421.4
433.16	413.6
433.52	445.4
433.87	422.6
434.22	453.0
434.57	444.4
434.93	442.2
435.28	467.4
435.63	462.0
435.99	467.8
436.34	496.0
436.69	474.0
437.04	463.0
437.40	491.6
437.75	473.4
438.10	506.4
438.45	493.4
438.81	499.8
439.16	506.6
439.51	517.8
439.86	514.6
440.22	535.2
440.57	509.6
440.92	523.8
441.27	508.4
441.62	529.6
441.98	541.2
442.33	537.2
442.68	556.0
443.03	541.8
443.38	559.6
443.74	553.0
444.09	557.4
444.44	565.4
444.79	549.8
445.14	576.8
445.50	564.0
445.85	577.8
446.20	585.4
446.55	622.8
446.90	614.0
447.25	568.2
447.60	601.4
447.96	586.4
448.31	638.2
448.66	612.0
449.01	642.4
449.36	632.6
449.71	620.4
450.06	627.8
450.42	636.4
450.77	651.6
451.12	660.4
451.47	640.8
451.82	643.8
452.17	634.8
452.52	656.4
452.87	666.6
453.22	680.8
453.57	662.2
453.93	695.4
454.28	657.6
454.63	692.8
454.98	702.2
455.33	708.4
455.68	717.4
456.03	721.2
456.38	752.0
456.73	733.4
457.08	726.4
457.43	751.6
457.78	743.8
458.13	738.6
458.48	762.6
458.83	762.6
459.18	797.2
459.53	791.4
459.88	788.0
460.23	770.6
460.58	792.4
460.93	811.8
461.28	829.0
461.63	812.0
461.98	837.2
462.33	820.0
462.68	824.8
463.03	880.0
463.38	860.8
463.73	870.2
464.08	862.2
464.43	881.0
464.78	897.4
465.13	976.6
465.48	899.2
465.83	941.6
466.18	948.4
466.53	954.8
466.88	948.8
467.23	988.8
467.58	971.0
467.93	993.2
468.27	977.6
468.62	1018.8
468.97	1004.6
469.32	1017.0
469.67	1034.0
470.02	1054.0
470.37	1081.8
470.72	1090.4
471.07	1093.6
471.42	1099.6
471.76	1126.0
472.11	1123.0
472.46	1139.8
472.81	1158.4
473.16	1202.6
473.51	1201.6
473.86	1206.4
474.21	1222.8
474.55	1245.8
474.90	1275.0
475.25	1319.0
475.60	1312.4
475.95	1304.4
476.30	1322.6
476.64	1357.8
476.99	1374.2
477.34	1386.0
477.69	1400.6
478.04	1414.8
478.39	1447.4
478.73	1459.2
479.08	1477.6
479.43	1484.8
479.78	1512.0
480.13	1555.0
480.47	1558.0
480.82	1599.6
481.17	1614.2
481.52	1618.6
481.86	1669.2
482.21	1665.0
482.56	1691.0
482.91	1709.4
483.25	1725.8
483.60	1746.6
483.95	1774.2
484.30	1779.4
484.64	1822.6
484.99	1847.8
485.34	1856.0
485.69	1871.6
486.03	1891.6
486.38	1902.8
486.73	1912.8
487.07	1948.4
487.42	1938.2
487.77	1982.4
488.12	1999.2
488.46	2013.6
488.81	2045.2
489.16	2060.8
489.50	2056.6
489.85	2066.0
490.20	2110.0
490.54	2123.8
490.89	2156.8
491.24	2165.0
491.58	2169.8
491.93	2184.2
492.28	2201.0
492.62	2206.8
492.97	2226.6
493.32	2232.8
493.66	2262.2
494.01	2265.0
494.36	2279.2
494.70	2305.2
495.05	2306.8
495.39	2323.8
495.74	2348.0
496.09	2344.6
496.43	2356.2
496.78	2368.2
497.12	2376.0
497.47	2404.0
497.82	2401.8
498.16	2408.2
498.51	2427.0
498.85	2474.0
499.20	2445.6
499.55	2456.6
499.89	2466.6
500.24	2472.6
500.58	2478.6
500.93	2504.2
501.27	2507.2
501.62	2507.6
501.96	2529.4
502.31	2523.6
502.66	2531.0
503.00	2560.2
503.35	2635.0
503.69	2616.0
504.04	2582.0
504.38	2605.8
504.73	2595.4
505.07	2601.2
505.42	2631.6
505.76	2631.2
506.11	2634.4
506.45	2654.2
506.80	2639.8
507.14	2660.0
507.49	2667.6
507.83	2686.6
508.18	2699.8
508.52	2683.4
508.86	2707.6
509.21	2773.4
509.55	2735.6
509.90	2734.4
510.24	2743.0
510.59	2746.4
510.93	2767.0
511.28	2772.6
511.62	2771.4
511.96	2797.6
512.31	2823.6
512.65	2811.6
513.00	2826.8
513.34	2839.6
513.69	2845.2
514.03	2852.2
514.37	2866.4
514.72	2878.0
515.06	2893.2
515.41	2882.0
515.75	2912.4
516.09	2926.4
516.44	2942.8
516.78	2925.0
517.12	2996.2
517.47	2962.0
517.81	2951.8
518.16	2952.4
518.50	3006.4
518.84	2993.6
519.19	2995.2
519.53	3003.8
519.87	3019.2
520.22	3036.6
520.56	3029.8
520.90	3049.4
521.25	3067.2
521.59	3050.8
521.93	3066.2
522.28	3093.0
522.62	3083.8
522.96	3122.0
523.30	3085.6
523.65	3144.0
523.99	3133.8
524.33	3138.2
524.68	3131.8
525.02	3153.6
525.36	3149.6
525.70	3170.6
526.05	3172.2
526.39	3164.2
526.73	3191.6
527.08	3203.2
527.42	3201.8
527.76	3214.6
528.10	3210.6
528.44	3214.4
528.79	3218.6
529.13	3243.0
529.47	3247.0
529.81	3265.6
530.16	3259.4
530.50	3262.0
530.84	3264.6
531.18	3263.0
531.52	3289.6
531.87	3278.2
532.21	3283.4
532.55	3285.8
532.89	3301.0
533.23	3321.2
533.58	3306.2
533.92	3311.0
534.26	3341.4
534.60	3390.2
534.94	3343.2
535.28	3329.6
535.63	3324.2
535.97	3331.8
536.31	3336.2
536.65	3336.4
536.99	3360.4
537.33	3371.2
537.67	3360.4
538.02	3373.6
538.36	3380.8
538.70	3387.2
539.04	3402.6
539.38	3395.2
539.72	3380.0
540.06	3406.4
540.40	3407.0
540.74	3394.2
541.09	3404.4
541.43	3395.6
541.77	3421.2
542.11	3414.8
542.45	3425.8
542.79	3424.4
543.13	3435.0
543.47	3444.0
543.81	3458.2
544.15	3476.0
544.49	3456.4
544.83	3462.6
545.17	3465.6
545.51	3495.4
545.85	3481.4
546.19	3484.6
546.53	3488.6
546.88	3510.2
547.22	3474.0
547.56	3493.0
547.90	3516.4
548.24	3515.2
548.58	3511.8
548.92	3516.4
549.26	3504.0
549.60	3528.2
549.94	3528.0
550.28	3532.6
550.62	3549.8
550.95	3540.4
551.29	3569.6
551.63	3568.2
551.97	3545.8
552.31	3566.4
552.65	3567.4
552.99	3572.8
553.33	3585.8
553.67	3602.8
554.01	3605.4
554.35	3598.8
554.69	3618.2
555.03	3620.8
555.37	3612.6
555.71	3609.6
556.05	3615.0
556.39	3642.6
556.72	3624.4
557.06	3667.4
557.40	3679.2
557.74	3654.6
558.08	3690.0
558.42	3659.6
558.76	3672.8
559.10	3677.6
559.44	3695.8
559.77	3678.6
560.11	3689.0
560.45	3702.6
560.79	3704.0
561.13	3729.0
561.47	3720.0
561.81	3714.2
562.14	3730.8
562.48	3718.0
562.82	3716.8
563.16	3727.4
563.50	3742.4
563.84	3754.2
564.17	3749.4
564.51	3758.8
564.85	3747.4
565.19	3776.8
565.53	3777.6
565.86	3757.6
566.20	3766.2
566.54	3767.2
566.88	3787.0
567.22	3791.4
567.55	3779.0
567.89	3817.6
568.23	3792.6
568.57	3799.2
568.90	3778.2
569.24	3805.8
569.58	3825.6
569.92	3806.4
570.25	3807.0
570.59	3797.6
570.93	3814.6
571.27	3844.2
571.60	3832.0
571.94	3803.4
572.28	3813.0
572.62	3818.2
572.95	3832.0
573.29	3807.0
573.63	3819.0
573.96	3835.4
574.30	3819.8
574.64	3841.6
574.97	3831.6
575.31	3829.0
575.65	3808.0
575.98	3848.4
576.32	3833.8
576.66	3836.2
576.99	3845.6
577.33	3851.2
577.67	3845.6
578.00	3857.2
578.34	3838.8
578.68	3837.4
579.01	3865.2
579.35	3843.2
579.69	3838.2
580.02	3853.2
580.36	3839.4
580.70	3845.4
581.03	3855.2
581.37	3866.2
581.70	3840.6
582.04	3843.0
582.38	3836.8
582.71	3859.0
583.05	3860.0
583.38	3839.2
583.72	3844.8
584.05	3830.4
584.39	3836.2
584.73	3841.0
585.06	3855.2
585.40	3880.4
585.73	3852.6
586.07	3813.4
586.40	3855.0
586.74	3851.2
587.08	3860.6
587.41	3826.8
587.75	3840.0
588.08	3845.0
588.42	3862.8
588.75	3843.4
589.09	3864.2
589.42	3817.8
589.76	3858.2
590.09	3826.8
590.43	3821.6
590.76	3830.4
591.10	3826.2
591.43	3836.0
591.77	3845.6
592.10	3838.2
592.44	3837.4
592.77	3837.4
593.11	3852.8
593.44	3873.4
593.77	3856.6
594.11	3837.0
594.44	3840.6
594.78	3875.4
595.11	3847.6
595.45	3816.4
595.78	3849.4
596.12	3856.8
596.45	3851.2
596.78	3848.8
597.12	3830.4
597.45	3843.2
597.79	3846.6
598.12	3837.6
598.45	3856.4
598.79	3855.2
599.12	3861.6
599.46	3846.2
599.79	3849.4
600.12	3841.0
600.46	3860.0
600.79	3835.4
601.13	3867.8
601.46	3851.8
601.79	3851.0
602.13	3856.0
602.46	3841.4
602.79	3861.8
603.13	3867.2
603.46	3854.0
603.79	3868.2
604.13	3865.4
604.46	3850.0
604.79	3867.8
605.13	3866.4
605.46	3863.8
605.79	3866.8
606.13	3853.4
606.46	3870.2
606.79	3864.8
607.12	3868.0
607.46	3879.8
607.79	3866.8
608.12	3867.8
608.46	3853.4
608.79	3861.8
609.12	3853.0
609.45	3849.0
609.79	3880.4
610.12	3875.2
610.45	3868.4
610.78	3840.2
611.12	3856.8
611.45	3871.2
611.78	3853.0
612.11	3882.6
612.45	3875.8
612.78	3869.8
613.11	3861.4
613.44	3862.2
613.78	3844.8
614.11	3870.4
614.44	3864.6
614.77	3863.8
615.10	3841.6
615.43	3859.0
615.77	3857.4
616.10	3855.8
616.43	3849.8
616.76	3843.2
617.09	3837.4
617.43	3847.4
617.76	3848.4
618.09	3832.2
618.42	3847.0
618.75	3844.2
619.08	3842.2
619.41	3824.2
619.75	3813.4
620.08	3827.0
620.41	3820.2
620.74	3823.4
621.07	3812.4
621.40	3801.0
621.73	3827.2
622.06	3796.2
622.40	3791.0
622.73	3804.6
623.06	3795.0
623.39	3806.4
623.72	3772.0
624.05	3783.0
624.38	3789.4
624.71	3758.4
625.04	3777.8
625.37	3777.0
625.70	3751.0
626.03	3773.4
626.36	3751.0
626.70	3756.0
627.03	3768.8
627.36	3764.2
627.69	3755.8
628.02	3739.4
628.35	3752.0
628.68	3719.6
629.01	3733.2
629.34	3725.8
629.67	3720.4
630.00	3735.2
630.33	3719.0
630.66	3714.4
630.99	3698.4
631.32	3689.0
631.65	3691.8
631.98	3709.6
632.31	3672.8
632.64	3692.2
632.97	3689.8
633.30	3665.8
633.63	3639.2
633.96	3647.6
634.28	3658.8
634.61	3659.2
634.94	3642.0
635.27	3633.2
635.60	3641.4
635.93	3633.0
636.26	3617.6
636.59	3629.0
636.92	3605.4
637.25	3621.8
637.58	3597.0
637.91	3618.6
638.24	3606.2
638.57	3592.8
638.89	3624.4
639.22	3580.4
639.55	3605.6
639.88	3584.8
640.21	3566.4
640.54	3575.8
640.87	3544.6
641.20	3548.4
641.52	3558.8
641.85	3535.6
642.18	3539.0
642.51	3544.2
642.84	3534.2
643.17	3522.6
643.49	3543.6
643.82	3514.0
644.15	3502.6
644.48	3524.2
644.81	3508.6
645.14	3514.6
645.46	3516.8
645.79	3481.8
646.12	3497.4
646.45	3475.4
646.78	3484.8
647.10	3476.2
647.43	3468.6
647.76	3456.8
648.09	3468.6
648.42	3460.4
648.74	3458.2
649.07	3458.0
649.40	3445.8
649.73	3452.8
650.05	3470.4
650.38	3429.8
650.71	3433.4
651.04	3414.2
651.36	3425.6
651.69	3419.8
652.02	3419.6
652.34	3410.2
652.67	3420.0
653.00	3406.0
653.33	3401.2
653.65	3403.4
653.98	3409.4
654.31	3384.0
654.63	3384.6
654.96	3382.2
655.29	3386.2
655.61	3390.4
655.94	3375.2
656.27	3352.0
656.59	3373.8
656.92	3367.4
657.25	3378.6
657.57	3352.6
657.90	3356.8
658.23	3335.8
658.55	3361.2
658.88	3351.2
659.21	3338.2
659.53	3338.6
659.86	3335.6
660.19	3302.8
660.51	3328.0
660.84	3313.8
661.16	3309.8
661.49	3293.0
661.82	3308.2
662.14	3298.6
662.47	3294.8
662.79	3275.6
663.12	3291.0
663.44	3277.8
663.77	3254.8
664.10	3278.4
664.42	3263.8
664.75	3246.2
665.07	3262.8
665.40	3246.2
665.72	3260.4
666.05	3250.4
666.37	3245.8
666.70	3236.4
667.03	3238.4
667.35	3219.4
667.68	3232.0
668.00	3219.2
668.33	3246.6
668.65	3214.4
668.98	3230.8
669.30	3206.4
669.63	3194.8
669.95	3196.2
670.28	3193.6
670.60	3166.2
670.93	3199.2
671.25	3160.8
671.58	3175.2
671.90	3169.0
672.22	3160.8
672.55	3149.2
672.87	3154.8
673.20	3141.6
673.52	3139.2
673.85	3128.6
674.17	3127.6
674.50	3120.6
674.82	3091.2
675.14	3127.4
675.47	3110.0
675.79	3096.8
676.12	3077.8
676.44	3094.6
676.76	3127.0
677.09	3072.4
677.41	3037.6
677.74	3061.4
678.06	3064.6
678.38	3034.0
678.71	3044.6
679.03	3031.4
679.36	3012.0
679.68	3027.0
680.00	3012.2
680.33	3012.2
680.65	2986.8
680.97	3010.6
681.30	2978.8
681.62	2981.0
681.94	2994.4
682.27	2967.8
682.59	2991.8
682.91	2962.6
683.24	2949.6
683.56	2952.8
683.88	2931.8
684.21	2926.8
684.53	2939.0
684.85	2935.4
685.17	2915.6
685.50	2894.8
685.82	2926.0
686.14	2890.2
686.47	2898.2
686.79	2865.6
687.11	2865.4
687.43	2867.8
687.76	2853.6
688.08	2876.0
688.40	2886.8
688.72	2852.2
689.05	2816.0
689.37	2817.2
689.69	2807.6
690.01	2817.6
690.34	2793.2
690.66	2791.8
690.98	2782.2
691.30	2768.0
691.62	2768.0
691.95	2765.4
692.27	2756.2
692.59	2744.6
692.91	2753.2
693.23	2729.6
693.56	2716.8
693.88	2713.6
694.20	2713.6
694.52	2713.6
694.84	2722.0
695.16	2691.6
695.48	2690.4
695.81	2680.6
696.13	2673.8
696.45	2692.0
696.77	2659.4
697.09	2660.2
697.41	2644.2
697.73	2631.8
698.06	2642.4
698.38	2620.4
698.70	2629.4
699.02	2633.0
699.34	2615.8
699.66	2607.4
699.98	2600.6
700.30	2578.2
700.62	2588.6
700.94	2575.8
701.27	2577.2
701.59	2583.0
701.91	2550.2
702.23	2553.6
702.55	2545.4
702.87	2518.2
703.19	2522.2
703.51	2515.6
703.83	2521.4
704.15	2540.0
704.47	2504.2
704.79	2504.2
705.11	2484.4
705.43	2479.8
705.75	2481.2
706.07	2465.6
706.39	2464.8
706.71	2466.2
707.03	2468.0
707.35	2442.2
707.67	2430.4
707.99	2432.4
708.31	2405.8
708.63	2433.0
708.95	2409.2
709.27	2411.0
709.59	2399.0
709.91	2400.0
710.23	2395.6
710.55	2387.0
710.87	2388.2
711.19	2359.2
711.51	2362.0
711.83	2372.6
712.15	2365.4
712.46	2351.0
712.78	2323.0
713.10	2340.4
713.42	2350.8
713.74	2323.8
714.06	2329.6
714.38	2313.8
714.70	2324.0
715.02	2296.4
715.34	2310.4
715.65	2304.0
715.97	2280.8
716.29	2339.4
716.61	2266.8
716.93	2269.4
717.25	2291.8
717.57	2271.4
717.88	2246.0
718.20	2248.0
718.52	2249.6
718.84	2250.0
719.16	2244.8
719.48	2231.8
719.79	2233.0
720.11	2215.0
720.43	2227.6
720.75	2212.2
721.07	2218.0
721.39	2223.8
721.70	2208.8
722.02	2189.0
722.34	2189.2
722.66	2179.0
722.97	2180.0
723.29	2155.2
723.61	2169.2
723.93	2153.6
724.25	2160.0
724.56	2153.0
724.88	2137.8
725.20	2139.0
725.52	2134.4
725.83	2120.4
726.15	2123.8
726.47	2135.8
726.78	2122.8
727.10	2105.0
727.42	2111.6
727.74	2117.0
728.05	2107.0
728.37	2090.8
728.69	2102.2
729.00	2077.6
729.32	2081.0
729.64	2076.2
729.96	2096.4
730.27	2053.0
730.59	2049.4
730.91	2049.8
731.22	2042.4
731.54	2033.8
731.86	2043.6
732.17	2046.8
732.49	2031.8
732.80	2027.6
733.12	2025.4
733.44	2008.8
733.75	2012.8
734.07	1995.2
734.39	2019.4
734.70	2000.0
735.02	1979.4
735.33	1987.2
735.65	1971.2
735.97	1975.8
736.28	1966.2
736.60	1955.8
736.91	1961.4
737.23	1954.2
737.55	1951.8
737.86	1946.4
738.18	1938.8
738.49	1940.0
738.81	1954.8
739.12	1930.4
739.44	1923.4
739.76	1901.8
740.07	1907.4
740.39	1928.0
740.70	1890.6
741.02	1886.8
741.33	1917.0
741.65	1886.4
741.96	1879.0
742.28	2034.8
742.59	1872.8
742.91	1860.6
743.22	1870.6
743.54	1846.0
743.85	1859.0
744.17	1838.2
744.48	1837.8
744.80	1824.4
745.11	1840.2
745.43	1838.4
745.74	1825.6
746.06	1812.6
746.37	1835.4
746.68	1818.6
747.00	1797.8
747.31	1795.6
747.63	1783.6
747.94	1769.8
748.26	1781.4
748.57	1774.8
748.88	1763.4
749.20	1770.8
749.51	1751.0
749.83	1762.2
750.14	1740.2
750.45	1725.8
750.77	1743.4
751.08	1730.6
751.40	1727.6
751.71	1711.4
752.02	1707.2
752.34	1722.2
752.65	1712.4
752.96	1685.4
753.28	1700.2
753.59	1680.2
753.91	1679.6
754.22	1670.6
754.53	1666.4
754.85	1652.8
755.16	1640.6
755.47	1660.0
755.79	1651.6
756.10	1634.8
756.41	1629.4
756.72	1627.2
757.04	1630.2
757.35	1622.2
757.66	1607.4
757.98	1601.0
758.29	1605.0
758.60	1586.6
758.92	1602.2
759.23	1575.0
759.54	1583.4
759.85	1572.4
760.17	1562.8
760.48	1553.4
760.79	1553.4
761.10	1545.4
761.42	1535.6
761.73	1517.8
762.04	1531.6
762.35	1513.2
762.66	1506.8
762.98	1495.8
763.29	1505.2
763.60	1491.0
763.91	1499.2
764.23	1482.0
764.54	1485.4
764.85	1522.6
765.16	1477.0
765.47	1468.4
765.78	1453.6
766.10	1436.8
766.41	1447.2
766.72	1472.2
767.03	1476.2
767.34	1422.4
767.65	1425.8
767.97	1417.6
768.28	1401.0
768.59	1410.4
768.90	1407.0
769.21	1387.6
769.52	1383.0
769.83	1379.4
770.14	1390.0
770.46	1365.2
770.77	1362.2
771.08	1360.2
771.39	1341.0
771.70	1334.0
772.01	1344.2
772.32	1327.0
772.63	1343.2
772.94	1336.2
773.25	1325.2
773.56	1316.8
773.88	1316.8
774.19	1293.8
774.50	1294.8
774.81	1303.0
775.12	1298.0
775.43	1277.2
775.74	1287.6
776.05	1285.8
776.36	1276.8
776.67	1274.4
776.98	1279.4
777.29	1261.0
777.60	1261.4
777.91	1253.0
778.22	1257.0
778.53	1241.2
778.84	1251.4
779.15	1239.2
779.46	1242.4
779.77	1245.0
780.08	1229.4
780.39	1228.4
780.70	1239.2
781.01	1228.6
781.32	1220.4
781.63	1211.2
781.94	1250.6
782.25	1215.6
782.55	1218.8
782.86	1209.8
783.17	1195.4
783.48	1180.8
783.79	1190.0
784.10	1189.0
784.41	1193.0
784.72	1187.2
785.03	1220.0
785.34	1177.0
785.65	1170.2
785.95	1168.4
786.26	1168.4
786.57	1162.8
786.88	1162.2
787.19	1171.4
787.50	1171.8
787.81	1162.4
788.12	1158.0
788.42	1153.6
788.73	1157.4
789.04	1138.2
789.35	1140.4
789.66	1139.2
789.97	1134.4
790.27	1123.8
790.58	1124.4
790.89	1113.0
791.20	1126.4
791.51	1126.4
791.81	1122.4
792.12	1105.2
792.43	1121.2
792.74	1114.8
793.05	1112.8
793.35	1090.4
793.66	1087.0
793.97	1089.2
794.28	1087.0
794.58	1093.4
794.89	1091.8
795.20	1084.6
795.51	1088.6
795.81	1073.2
796.12	1061.0
796.43	1074.6
796.74	1059.0
797.04	1050.0
797.35	1051.8
797.66	1037.8
797.96	1043.4
798.27	1042.8
798.58	1049.6
798.89	1044.2
799.19	1037.0
799.50	1065.0
799.81	1037.6
800.11	1025.6
800.42	1021.6
800.73	1025.6
801.03	1010.2
801.34	1012.4
801.65	1011.4
801.95	1013.6
802.26	1000.0
802.57	989.6
802.87	1004.6
803.18	996.6
803.48	1001.6
803.79	983.2
804.10	970.6
804.40	970.4
804.71	973.8
805.02	977.0
805.32	971.2
805.63	958.4
805.93	971.0
806.24	961.8
806.55	961.2
806.85	954.0
807.16	949.8
807.46	945.2
807.77	941.2
808.07	947.2
808.38	931.0
808.68	934.0
808.99	932.0
809.30	913.6
809.60	934.8
809.91	919.2
810.21	933.4
810.52	910.4
810.82	920.0
811.13	919.2
811.43	902.0
811.74	928.0
812.04	905.8
812.35	901.0
812.65	891.2
812.96	889.2
813.26	889.2
813.57	879.6
813.87	879.8
814.18	893.4
814.48	875.4
814.79	880.0
815.09	870.6
815.39	887.4
815.70	860.2
816.00	860.0
816.31	846.8
816.61	851.0
816.92	859.6
817.22	839.4
817.52	850.4
817.83	846.0
818.13	837.2
818.44	839.6
818.74	835.4
819.04	824.8
819.35	825.6
819.65	813.0
819.96	821.6
820.26	801.0
820.56	819.4
820.87	808.8
821.17	810.2
821.47	810.6
821.78	805.0
822.08	786.2
822.39	790.0
822.69	794.0
822.99	802.8
823.30	792.2
823.60	779.6
823.90	792.0
824.21	785.4
824.51	780.0
824.81	768.2
825.11	767.2
825.42	765.4
825.72	763.0
826.02	759.0
826.33	750.4
826.63	765.8
826.93	747.0
827.23	756.0
827.54	748.8
827.84	746.8
828.14	751.6
828.44	746.0
828.75	746.4
829.05	737.6
829.35	726.8
829.65	731.0
829.96	731.2
830.26	727.4
830.56	763.8
830.86	733.0
831.17	723.8
831.47	717.0
831.77	713.4
832.07	719.0
832.37	712.2
832.68	709.2
832.98	702.6
833.28	711.6
833.58	696.2
833.88	692.8
834.18	691.2
834.49	699.2
834.79	687.2
835.09	682.2
835.39	684.4
835.69	691.4
835.99	676.6
836.29	680.0
836.60	690.0
836.90	677.2
837.20	676.0
837.50	671.2
837.80	658.4
838.10	691.4
838.40	663.4
838.70	658.0
839.00	659.2
839.31	678.6
839.61	650.2
839.91	656.8
840.21	640.6
840.51	658.6
840.81	634.2
841.11	642.2
841.41	640.8
841.71	642.4
842.01	657.0
842.31	626.4
842.61	630.0
842.91	628.4
843.21	624.4
843.51	627.6
843.81	615.8
844.11	613.2
844.41	612.8
844.71	609.4
845.01	618.6
845.31	616.0
845.61	615.4
845.91	607.2
846.21	591.8
846.51	607.4
846.81	598.0
847.11	611.0
847.41	595.6
847.71	591.4
848.01	602.6
848.31	598.2
848.61	580.6
848.91	590.2
849.21	575.4
849.51	678.2
849.81	578.8
850.11	576.4
850.40	575.0
850.70	574.8
851.00	588.0
851.30	577.8
851.60	571.0
851.90	565.0
852.20	562.6
852.50	555.4
852.80	563.2
853.10	554.0
853.39	557.4
853.69	560.0
853.99	554.2
854.29	545.6
854.59	542.4
854.89	550.0
855.18	543.2
855.48	546.6
855.78	529.0
856.08	536.8
856.38	531.6
856.68	549.4
856.97	528.4
857.27	525.6
857.57	536.6
857.87	526.6
858.17	543.8
858.46	521.8
858.76	549.0
859.06	515.8
859.36	516.4
859.66	511.2
859.95	512.2
860.25	507.8
860.55	502.4
860.85	508.8
861.14	494.4
861.44	496.4
861.74	492.4
862.04	500.8
862.33	504.8
862.63	498.4
862.93	479.8
863.22	484.8
863.52	489.8
863.82	485.8
864.12	525.6
864.41	489.6
864.71	474.0
865.01	479.2
865.30	466.0
865.60	464.4
865.90	461.6
866.19	460.6
866.49	476.8
866.79	463.6
867.08	457.8
867.38	460.6
867.68	453.0
867.97	452.8
868.27	445.6
868.56	456.2
868.86	446.2
869.16	484.6
869.45	441.6
869.75	437.2
870.05	431.0
870.34	465.2
870.64	461.6
870.93	439.8
871.23	427.4
871.53	435.4
871.82	434.8
872.12	426.6
872.41	426.8
872.71	423.0
873.00	420.0
873.30	419.0
873.59	425.0
873.89	409.8
874.19	414.4
874.48	427.2
874.78	411.6
875.07	415.0
875.37	410.2
875.66	412.2
875.96	406.8
876.25	407.6
876.55	406.0
876.84	400.4
877.14	415.0
877.43	395.2
877.73	391.6
878.02	417.0
878.32	388.0
878.61	386.6
878.91	386.0
879.20	391.4
879.49	402.0
879.79	392.0
880.08	383.4
880.38	377.6
880.67	372.4
880.97	372.2
881.26	364.6
881.56	361.8
881.85	369.0
882.14	369.4
882.44	374.2
882.73	364.8
883.03	378.6
883.32	353.0
883.61	351.0
883.91	355.8
884.20	354.8
884.50	348.4
884.79	346.8
885.08	348.0
885.38	341.0
885.67	338.8
885.96	339.0
886.26	338.2
886.55	338.2
886.84	335.6
887.14	328.4
887.43	330.4
887.72	332.0
888.02	325.0
888.31	321.4
888.60	331.0
888.90	322.2
889.19	323.6
889.48	314.4
889.77	316.8
890.07	322.2
890.36	322.4
890.65	316.8
890.95	320.2
891.24	310.6
891.53	303.8
891.82	299.8
892.12	304.8
892.41	301.8
892.70	302.8
892.99	298.2
893.29	302.4
893.58	289.2
893.87	292.0
894.16	290.8
894.45	295.8
894.75	290.4
895.04	289.4
895.33	285.2
895.62	289.8
895.91	285.0
896.21	283.4
896.50	283.2
896.79	274.8
897.08	272.6
897.37	272.4
897.66	283.6
897.96	296.8
898.25	269.8
898.54	275.2
898.83	275.2
899.12	268.2
899.41	268.2
899.70	268.2
900.00	272.4
900.29	277.6
900.58	266.0
900.87	263.0
901.16	274.8
901.45	259.8
901.74	258.2
902.03	262.2
902.32	260.4
902.62	268.4
902.91	253.2
903.20	254.2
903.49	257.4
903.78	265.4
904.07	244.8
904.36	251.8
904.65	252.6
904.94	250.8
905.23	281.4
905.52	244.6
905.81	247.8
906.10	243.4
906.39	244.4
906.68	246.4
906.97	237.4
907.26	235.6
907.55	240.0
907.84	238.4
908.13	242.0
908.42	245.8
908.71	247.2
909.00	242.2
909.29	227.2
909.58	232.0
909.87	235.4
910.16	240.8
910.45	234.4
910.74	242.2
911.03	230.8
911.32	229.0
911.61	231.2
911.90	235.8
912.19	230.8
912.47	225.8
912.76	220.2
913.05	218.2
913.34	229.2
913.63	227.2
913.92	222.0
914.21	226.8
914.50	227.4
914.79	218.2
915.07	213.8
915.36	213.2
915.65	211.4
915.94	211.4
916.23	221.8
916.52	217.2
916.81	251.8
917.09	215.4
917.38	212.2
917.67	218.8
917.96	205.6
918.25	209.6
918.54	209.0
918.82	208.4
919.11	209.2
919.40	199.8
919.69	198.4
919.98	208.6
920.26	209.2
920.55	212.0
920.84	202.2
921.13	199.4
921.42	205.6
921.70	199.4
921.99	195.0
922.28	210.2
922.57	197.8
922.85	198.0
923.14	197.0
923.43	197.8
923.71	192.4
924.00	188.6
924.29	187.8
924.58	193.6
924.86	189.6
925.15	205.2
925.44	209.8
925.72	190.6
926.01	194.6
926.30	185.8
926.59	180.8
926.87	183.8
927.16	182.2
927.45	189.8
927.73	188.0
928.02	177.0
928.31	180.4
928.59	183.8
928.88	176.4
929.16	180.2
929.45	168.6
929.74	172.2
930.02	170.8
930.31	169.0
930.60	168.4
930.88	172.2
931.17	165.2
931.45	175.0
931.74	164.6
932.03	166.6
932.31	160.2
932.60	159.8
932.88	166.0
933.17	158.4
933.45	173.0
933.74	158.4
934.03	154.8
934.31	160.0
934.60	154.4
934.88	200.2
935.17	164.2
935.45	158.4
935.74	153.2
936.02	152.6
936.31	155.2
936.59	163.2
936.88	157.0
937.16	163.6
937.45	154.6
937.73	155.4
938.02	152.6
938.30	171.6
938.59	144.6
938.87	150.0
939.16	144.8
939.44	157.8
939.73	142.0
940.01	139.0
940.30	140.8
940.58	141.6
940.86	150.8
941.15	142.8
941.43	137.8
941.72	135.2
942.00	137.4
942.29	140.8
942.57	144.4
942.85	135.2
943.14	143.4
943.42	136.8
943.71	137.0
943.99	129.2
944.27	132.4
944.56	132.4
944.84	123.8
945.12	128.0
945.41	134.0
945.69	130.2
945.98	123.6
946.26	129.4
946.54	123.0
946.83	124.2
947.11	127.2
947.39	120.8
947.68	128.8
947.96	118.8
948.24	124.6
948.53	122.2
948.81	119.4
949.09	121.4
949.37	114.6
949.66	114.2
949.94	115.2
950.22	114.0
950.51	114.6
950.79	111.6
951.07	118.6
951.35	115.0
951.64	108.6
951.92	112.4
952.20	109.4
952.48	110.2
952.77	113.2
953.05	107.0
953.33	109.2
953.61	106.6
953.89	101.4
954.18	102.2
954.46	106.6
954.74	98.8
955.02	107.6
955.30	101.4
955.59	102.2
955.87	98.4
956.15	96.2
956.43	100.0
956.71	98.8
957.00	95.4
957.28	93.4
957.56	96.6
957.84	93.4
958.12	94.4
958.40	96.4
958.68	97.0
958.97	90.8
959.25	91.8
959.53	90.8
959.81	103.8
960.09	115.8
960.37	94.8
960.65	138.6
960.93	96.6
961.21	91.6
961.49	94.4
961.78	86.4
962.06	84.8
962.34	89.0
962.62	86.8
962.90	87.4
963.18	84.6
963.46	84.8
963.74	85.8
964.02	84.0
964.30	81.8
964.58	83.2
964.86	81.4
965.14	79.0
965.42	88.6
965.70	74.8
965.98	85.8
966.26	79.2
966.54	75.0
966.82	78.6
967.10	75.8
967.38	80.8
967.66	75.6
967.94	75.6
968.22	78.0
968.50	68.8
968.78	74.8
969.06	81.4
969.34	75.0
969.62	88.4
969.90	74.8
970.18	67.4
970.46	75.0
970.73	65.0
971.01	68.2
971.29	68.2
971.57	66.2
971.85	107.4
972.13	69.2
972.41	64.6
972.69	65.2
972.97	56.8
973.24	64.0
973.52	64.2
973.80	64.2
974.08	55.4
974.36	59.2
974.64	67.8
974.92	59.4
975.19	65.2
975.47	61.4
975.75	55.0
976.03	54.4
976.31	58.2
976.59	58.8
976.86	61.6
977.14	55.2
977.42	59.8
977.70	60.2
977.98	58.2
978.25	54.2
978.53	53.4
978.81	58.0
979.09	52.6
979.37	58.0
979.64	56.6
979.92	59.6
980.20	55.4
980.48	52.6
980.75	51.2
981.03	49.8
981.31	62.4
981.58	52.0
981.86	48.8
982.14	60.0
982.42	81.6
982.69	61.0
982.97	50.6
983.25	47.0
983.52	44.4
983.80	44.8
984.08	45.6
984.35	60.8
984.63	56.6
984.91	52.2
985.18	50.2
985.46	49.6
985.74	51.0
986.01	52.0
986.29	42.6
986.57	49.2
986.84	43.8
987.12	77.2
987.40	45.8
987.67	50.6
987.95	45.8
988.22	53.2
988.50	38.0
988.78	43.6
989.05	34.2
989.33	36.6
989.60	38.4
989.88	42.0
990.16	34.6
990.43	44.6
990.71	43.6
990.98	35.2
991.26	42.2
991.53	37.6
991.81	30.2
992.08	36.8
992.36	34.0
992.64	36.2
992.91	30.4
993.19	34.2
993.46	39.0
993.74	41.8
994.01	39.2
994.29	33.4
994.56	34.0
994.84	35.0
995.11	38.0
995.39	34.8
995.66	33.0
995.93	42.4
996.21	35.0
996.48	37.2
996.76	36.8
>>>>>End Spectral Data<<<<<
