OOIBase32 Version 2.0.0.6 Data File
++++++++++++++++++++++++++++++++++++
Date: 
User: Valued Ocean Optics Customer
Spectrometer Serial Number: 
Spectrometer Channel: Master
Integration Time (msec): 120
Spectra Averaged: 5
Boxcar Smoothing: 0
Correct for Electrical Dark: Enabled
Time Normalized: Disabled
Dual-beam Reference: Disabled
Reference Channel: Master
Temperature: Not acquired
Spectrometer Type: S2000
ADC Type: SERIALADC
Number of Pixels in File: 2048
Graph Title: 
>>>>>Begin Spectral Data<<<<<
339.75	0.0
340.11	0.0
340.48	0.8
340.84	1.4
341.20	1.8
341.56	5.2
341.93	3.0
342.29	-0.2
342.65	6.4
343.01	0.2
343.38	-0.4
343.74	-0.8
344.10	-0.4
344.46	-1.2
344.82	-0.4
345.19	-0.4
345.55	-1.2
345.91	0.6
346.27	-1.4
346.64	-1.4
347.00	-0.2
347.36	1.2
347.72	1.0
348.08	-1.6
348.44	2.0
348.81	0.0
349.17	7.4
349.53	4.6
349.89	4.8
350.25	5.0
350.62	4.2
350.98	4.6
351.34	1.2
351.70	5.2
352.06	5.8
352.42	7.2
352.78	3.6
353.15	2.8
353.51	4.4
353.87	4.0
354.23	1.8
354.59	3.0
354.95	3.8
355.31	1.0
355.67	1.8
356.04	2.8
356.40	6.6
356.76	2.2
357.12	3.0
357.48	4.0
357.84	1.8
358.20	4.8
358.56	5.8
358.92	5.0
359.28	4.6
359.64	1.0
360.00	5.0
360.37	5.4
360.73	6.0
361.09	5.4
361.45	0.8
361.81	4.4
362.17	3.8
362.53	3.8
362.89	3.4
363.25	3.8
363.61	5.0
363.97	6.0
364.33	9.8
364.69	8.8
365.05	5.2
365.41	11.0
365.77	5.4
366.13	4.8
366.49	6.4
366.85	5.2
367.21	6.2
367.57	6.4
367.93	9.4
368.29	7.8
368.65	5.2
369.01	6.4
369.37	3.6
369.73	8.4
370.09	6.0
370.45	8.6
370.81	6.4
371.17	7.4
371.53	7.0
371.89	8.0
372.25	10.6
372.61	10.6
372.96	7.6
373.32	7.0
373.68	6.6
374.04	8.2
374.40	12.4
374.76	7.0
375.12	10.0
375.48	11.8
375.84	8.6
376.20	9.2
376.56	10.8
376.92	9.4
377.27	11.2
377.63	11.8
377.99	8.4
378.35	10.8
378.71	11.6
379.07	11.8
379.43	10.2
379.79	12.0
380.14	11.6
380.50	12.6
380.86	15.6
381.22	14.4
381.58	13.0
381.94	11.0
382.30	14.6
382.65	13.4
383.01	16.4
383.37	17.2
383.73	16.0
384.09	15.8
384.44	16.2
384.80	15.4
385.16	15.6
385.52	18.0
385.88	16.0
386.24	18.6
386.59	20.2
386.95	21.0
387.31	17.8
387.67	15.0
388.02	22.8
388.38	21.4
388.74	20.6
389.10	21.4
389.46	21.2
389.81	20.6
390.17	27.6
390.53	22.6
390.89	24.4
391.24	26.2
391.60	25.8
391.96	25.2
392.32	26.8
392.67	26.2
393.03	28.0
393.39	28.0
393.74	29.4
394.10	29.4
394.46	28.6
394.82	31.0
395.17	30.0
395.53	33.4
395.89	30.6
396.24	33.6
396.60	33.8
396.96	34.6
397.31	34.0
397.67	35.6
398.03	34.4
398.38	36.4
398.74	37.6
399.10	38.2
399.45	37.6
399.81	43.8
400.17	39.6
400.52	42.2
400.88	41.4
401.24	42.0
401.59	39.8
401.95	45.8
402.31	45.0
402.66	45.6
403.02	43.4
403.38	40.8
403.73	43.4
404.09	45.8
404.44	50.0
404.80	47.0
405.16	47.8
405.51	50.2
405.87	52.2
406.22	50.8
406.58	50.0
406.94	50.2
407.29	54.6
407.65	53.6
408.00	57.4
408.36	55.2
408.71	55.4
409.07	55.0
409.43	58.8
409.78	58.8
410.14	59.2
410.49	60.6
410.85	60.2
411.20	62.4
411.56	61.4
411.91	65.4
412.27	63.0
412.62	63.6
412.98	61.6
413.33	62.2
413.69	64.4
414.04	75.4
414.40	72.2
414.75	70.6
415.11	74.0
415.46	71.6
415.82	74.0
416.17	74.0
416.53	72.6
416.88	76.8
417.24	75.4
417.59	75.6
417.95	81.6
418.30	78.8
418.66	82.0
419.01	80.2
419.37	79.6
419.72	86.2
420.07	83.4
420.43	88.0
420.78	87.4
421.14	89.4
421.49	87.4
421.85	90.0
422.20	89.6
422.55	93.8
422.91	86.8
423.26	97.4
423.62	94.2
423.97	95.2
424.33	96.6
424.68	96.0
425.03	97.4
425.39	100.8
425.74	99.8
426.09	102.0
426.45	107.0
426.80	105.8
427.16	111.4
427.51	107.4
427.86	103.8
428.22	111.2
428.57	112.8
428.92	116.8
429.28	116.4
429.63	118.2
429.98	117.8
430.34	121.2
430.69	121.6
431.04	124.6
431.40	120.0
431.75	126.0
432.10	122.4
432.46	130.4
432.81	132.4
433.16	132.8
433.52	140.2
433.87	135.8
434.22	143.0
434.57	144.4
434.93	137.6
435.28	146.6
435.63	146.6
435.99	149.8
436.34	156.2
436.69	153.8
437.04	151.6
437.40	158.0
437.75	153.0
438.10	163.0
438.45	160.8
438.81	166.0
439.16	165.0
439.51	168.6
439.86	172.6
440.22	180.6
440.57	169.0
440.92	178.2
441.27	173.2
441.62	180.8
441.98	184.2
442.33	184.0
442.68	186.8
443.03	185.8
443.38	193.8
443.74	189.6
444.09	193.4
444.44	196.0
444.79	190.8
445.14	205.4
445.50	195.8
445.85	202.6
446.20	206.6
446.55	212.6
446.90	209.6
447.25	204.2
447.60	213.8
447.96	208.8
448.31	222.2
448.66	219.8
449.01	227.0
449.36	227.4
449.71	224.0
450.06	225.4
450.42	227.6
450.77	235.4
451.12	241.0
451.47	235.4
451.82	238.4
452.17	235.2
452.52	239.6
452.87	243.2
453.22	254.6
453.57	241.8
453.93	257.0
454.28	242.0
454.63	256.0
454.98	264.8
455.33	263.4
455.68	273.2
456.03	270.8
456.38	278.6
456.73	276.8
457.08	278.4
457.43	285.8
457.78	282.8
458.13	285.4
458.48	294.8
458.83	292.8
459.18	295.4
459.53	302.2
459.88	303.0
460.23	304.6
460.58	309.0
460.93	316.6
461.28	319.4
461.63	313.4
461.98	321.8
462.33	320.6
462.68	324.2
463.03	344.0
463.38	338.0
463.73	339.0
464.08	344.2
464.43	345.6
464.78	361.0
465.13	376.6
465.48	360.8
465.83	374.0
466.18	378.2
466.53	383.2
466.88	385.8
467.23	397.8
467.58	392.0
467.93	408.4
468.27	394.2
468.62	415.6
468.97	405.0
469.32	414.2
469.67	422.4
470.02	429.8
470.37	447.6
470.72	438.6
471.07	448.4
471.42	455.4
471.76	461.8
472.11	464.4
472.46	472.8
472.81	484.6
473.16	496.0
473.51	494.2
473.86	507.4
474.21	506.6
474.55	514.0
474.90	533.6
475.25	542.8
475.60	544.8
475.95	547.4
476.30	560.2
476.64	575.4
476.99	584.2
477.34	590.6
477.69	599.6
478.04	600.8
478.39	610.2
478.73	618.4
479.08	628.0
479.43	635.0
479.78	655.0
480.13	661.2
480.47	668.4
480.82	683.8
481.17	688.6
481.52	706.6
481.86	719.4
482.21	725.8
482.56	738.4
482.91	738.2
483.25	750.8
483.60	758.8
483.95	778.4
484.30	785.8
484.64	805.0
484.99	808.0
485.34	821.6
485.69	828.4
486.03	841.8
486.38	851.0
486.73	853.6
487.07	880.0
487.42	875.0
487.77	893.4
488.12	904.6
488.46	914.6
488.81	918.8
489.16	937.2
489.50	929.8
489.85	942.2
490.20	966.8
490.54	965.6
490.89	975.8
491.24	988.6
491.58	994.4
491.93	1001.2
492.28	1017.2
492.62	1023.4
492.97	1034.0
493.32	1039.4
493.66	1058.0
494.01	1056.4
494.36	1076.0
494.70	1083.8
495.05	1084.2
495.39	1095.0
495.74	1107.2
496.09	1108.8
496.43	1118.8
496.78	1125.6
497.12	1128.2
497.47	1141.6
497.82	1141.0
498.16	1160.2
498.51	1172.4
498.85	1176.4
499.20	1178.8
499.55	1183.8
499.89	1201.4
500.24	1201.0
500.58	1207.2
500.93	1222.2
501.27	1216.8
501.62	1230.4
501.96	1241.0
502.31	1237.6
502.66	1237.4
503.00	1255.0
503.35	1278.0
503.69	1270.8
504.04	1272.2
504.38	1295.4
504.73	1294.2
505.07	1292.8
505.42	1297.4
505.76	1318.0
506.11	1316.6
506.45	1320.8
506.80	1332.8
507.14	1330.2
507.49	1344.6
507.83	1358.2
508.18	1360.2
508.52	1364.6
508.86	1374.6
509.21	1384.6
509.55	1380.0
509.90	1386.6
510.24	1399.2
510.59	1401.0
510.93	1415.0
511.28	1405.0
511.62	1418.4
511.96	1430.2
512.31	1432.4
512.65	1446.0
513.00	1447.6
513.34	1450.4
513.69	1453.4
514.03	1465.8
514.37	1471.4
514.72	1476.4
515.06	1492.4
515.41	1483.6
515.75	1489.6
516.09	1498.0
516.44	1504.6
516.78	1507.0
517.12	1505.0
517.47	1519.0
517.81	1511.2
518.16	1519.4
518.50	1542.0
518.84	1545.2
519.19	1522.8
519.53	1543.2
519.87	1535.6
520.22	1549.6
520.56	1544.0
520.90	1545.2
521.25	1552.0
521.59	1555.8
521.93	1560.4
522.28	1566.2
522.62	1569.2
522.96	1577.8
523.30	1564.4
523.65	1576.2
523.99	1558.4
524.33	1561.0
524.68	1575.8
525.02	1577.2
525.36	1578.8
525.70	1580.8
526.05	1579.6
526.39	1575.2
526.73	1584.0
527.08	1587.8
527.42	1576.6
527.76	1575.4
528.10	1586.2
528.44	1585.4
528.79	1575.4
529.13	1592.0
529.47	1584.4
529.81	1593.6
530.16	1578.2
530.50	1587.8
530.84	1587.6
531.18	1596.4
531.52	1581.6
531.87	1591.2
532.21	1586.4
532.55	1581.4
532.89	1586.0
533.23	1577.8
533.58	1592.0
533.92	1586.2
534.26	1585.8
534.60	1605.2
534.94	1594.4
535.28	1589.6
535.63	1581.6
535.97	1590.6
536.31	1588.8
536.65	1590.4
536.99	1600.6
537.33	1598.8
537.67	1598.6
538.02	1597.8
538.36	1607.6
538.70	1614.0
539.04	1613.0
539.38	1616.4
539.72	1610.4
540.06	1612.4
540.40	1610.0
540.74	1607.6
541.09	1622.8
541.43	1624.2
541.77	1627.2
542.11	1619.8
542.45	1628.6
542.79	1639.6
543.13	1646.2
543.47	1652.8
543.81	1655.2
544.15	1651.8
544.49	1652.8
544.83	1674.2
545.17	1670.0
545.51	1692.2
545.85	1686.2
546.19	1695.0
546.53	1693.2
546.88	1704.6
547.22	1699.4
547.56	1707.6
547.90	1707.0
548.24	1727.6
548.58	1731.0
548.92	1742.0
549.26	1739.6
549.60	1760.4
549.94	1769.8
550.28	1765.8
550.62	1777.4
550.95	1772.8
551.29	1792.6
551.63	1812.4
551.97	1799.2
552.31	1819.2
552.65	1814.6
552.99	1819.0
553.33	1841.0
553.67	1839.2
554.01	1852.6
554.35	1857.6
554.69	1862.8
555.03	1878.0
555.37	1875.2
555.71	1880.4
556.05	1874.8
556.39	1894.4
556.72	1897.8
557.06	1918.0
557.40	1917.6
557.74	1919.2
558.08	1930.2
558.42	1915.4
558.76	1942.0
559.10	1935.4
559.44	1941.6
559.77	1956.2
560.11	1954.8
560.45	1955.2
560.79	1957.0
561.13	1966.8
561.47	1967.6
561.81	1959.4
562.14	1961.6
562.48	1974.4
562.82	1967.4
563.16	1973.4
563.50	1986.6
563.84	1975.8
564.17	1975.2
564.51	1984.8
564.85	1973.2
565.19	1989.8
565.53	1986.6
565.86	1977.8
566.20	1969.4
566.54	1967.0
566.88	1983.8
567.22	1980.0
567.55	1971.8
567.89	1965.2
568.23	1961.6
568.57	1979.4
568.90	1958.0
569.24	1962.4
569.58	1977.2
569.92	1950.8
570.25	1943.2
570.59	1938.4
570.93	1944.4
571.27	1940.0
571.60	1944.6
571.94	1935.6
572.28	1929.6
572.62	1928.0
572.95	1945.0
573.29	1915.4
573.63	1936.0
573.96	1937.4
574.30	1935.2
574.64	1923.2
574.97	1923.0
575.31	1934.2
575.65	1919.2
575.98	1936.6
576.32	1936.2
576.66	1927.4
576.99	1937.2
577.33	1941.0
577.67	1945.8
578.00	1948.2
578.34	1954.0
578.68	1969.4
579.01	1973.8
579.35	1982.8
579.69	1981.4
580.02	2005.8
580.36	2003.6
580.70	2009.4
581.03	2031.4
581.37	2038.4
581.70	2058.2
582.04	2067.6
582.38	2089.0
582.71	2114.4
583.05	2129.0
583.38	2131.0
583.72	2165.4
584.05	2181.4
584.39	2195.4
584.73	2216.0
585.06	2239.8
585.40	2267.8
585.73	2275.4
586.07	2283.2
586.40	2343.6
586.74	2345.4
587.08	2381.2
587.41	2383.6
587.75	2426.2
588.08	2436.0
588.42	2469.2
588.75	2500.4
589.09	2518.4
589.42	2533.2
589.76	2571.0
590.09	2583.2
590.43	2617.8
590.76	2658.8
591.10	2657.4
591.43	2690.8
591.77	2723.2
592.10	2735.6
592.44	2769.0
592.77	2782.6
593.11	2818.8
593.44	2852.6
593.77	2869.8
594.11	2865.0
594.44	2920.6
594.78	2917.2
595.11	2952.8
595.45	2960.2
595.78	2992.6
596.12	3014.8
596.45	3021.2
596.78	3048.4
597.12	3076.4
597.45	3100.2
597.79	3100.0
598.12	3114.6
598.45	3149.2
598.79	3163.6
599.12	3175.0
599.46	3192.0
599.79	3207.0
600.12	3222.6
600.46	3238.6
600.79	3257.6
601.13	3281.2
601.46	3293.4
601.79	3288.6
602.13	3317.2
602.46	3313.2
602.79	3332.6
603.13	3375.0
603.46	3356.0
603.79	3382.8
604.13	3402.2
604.46	3398.8
604.79	3425.4
605.13	3418.2
605.46	3431.0
605.79	3429.4
606.13	3437.8
606.46	3465.4
606.79	3479.8
607.12	3471.8
607.46	3487.2
607.79	3493.2
608.12	3524.2
608.46	3512.4
608.79	3525.6
609.12	3522.8
609.45	3535.2
609.79	3558.2
610.12	3571.2
610.45	3568.2
610.78	3572.2
611.12	3568.2
611.45	3602.6
611.78	3587.6
612.11	3613.2
612.45	3610.6
612.78	3639.4
613.11	3613.2
613.44	3656.4
613.78	3638.0
614.11	3651.2
614.44	3669.8
614.77	3657.8
615.10	3643.8
615.43	3664.4
615.77	3672.8
616.10	3696.6
616.43	3679.0
616.76	3686.4
617.09	3695.4
617.43	3695.8
617.76	3696.6
618.09	3685.2
618.42	3718.2
618.75	3696.8
619.08	3717.0
619.41	3723.0
619.75	3727.2
620.08	3729.6
620.41	3739.4
620.74	3734.4
621.07	3722.0
621.40	3721.4
621.73	3752.6
622.06	3742.8
622.40	3728.4
622.73	3751.2
623.06	3739.6
623.39	3740.6
623.72	3733.4
624.05	3742.4
624.38	3738.0
624.71	3756.0
625.04	3751.6
625.37	3755.2
625.70	3746.2
626.03	3756.8
626.36	3752.6
626.70	3749.6
627.03	3751.8
627.36	3754.6
627.69	3761.2
628.02	3744.6
628.35	3742.8
628.68	3734.2
629.01	3750.0
629.34	3750.6
629.67	3740.2
630.00	3761.0
630.33	3756.0
630.66	3747.2
630.99	3748.6
631.32	3752.0
631.65	3746.2
631.98	3763.8
632.31	3731.6
632.64	3760.0
632.97	3739.0
633.30	3754.6
633.63	3718.0
633.96	3724.4
634.28	3726.0
634.61	3744.6
634.94	3737.4
635.27	3726.4
635.60	3733.6
635.93	3743.4
636.26	3723.8
636.59	3725.0
636.92	3720.4
637.25	3723.2
637.58	3722.6
637.91	3726.6
638.24	3718.8
638.57	3724.0
638.89	3743.6
639.22	3724.4
639.55	3704.6
639.88	3723.2
640.21	3712.4
640.54	3708.6
640.87	3695.4
641.20	3698.6
641.52	3710.2
641.85	3691.0
642.18	3679.0
642.51	3684.2
642.84	3689.2
643.17	3687.6
643.49	3697.2
643.82	3680.6
644.15	3676.4
644.48	3676.0
644.81	3678.2
645.14	3689.4
645.46	3682.2
645.79	3671.2
646.12	3677.6
646.45	3670.4
646.78	3668.4
647.10	3658.8
647.43	3670.2
647.76	3661.6
648.09	3658.2
648.42	3666.0
648.74	3669.2
649.07	3652.0
649.40	3664.6
649.73	3668.4
650.05	3655.4
650.38	3639.4
650.71	3664.4
651.04	3632.6
651.36	3648.0
651.69	3648.8
652.02	3634.2
652.34	3621.2
652.67	3642.2
653.00	3626.4
653.33	3638.2
653.65	3621.0
653.98	3645.4
654.31	3617.8
654.63	3634.2
654.96	3613.6
655.29	3636.4
655.61	3622.2
655.94	3609.2
656.27	3603.4
656.59	3617.0
656.92	3595.8
657.25	3611.0
657.57	3616.4
657.90	3611.0
658.23	3592.4
658.55	3618.6
658.88	3611.0
659.21	3598.6
659.53	3608.8
659.86	3601.4
660.19	3573.0
660.51	3597.2
660.84	3587.4
661.16	3593.2
661.49	3578.2
661.82	3603.8
662.14	3573.6
662.47	3586.0
662.79	3580.0
663.12	3571.0
663.44	3577.6
663.77	3558.0
664.10	3569.6
664.42	3548.0
664.75	3545.2
665.07	3560.6
665.40	3540.2
665.72	3553.4
666.05	3547.2
666.37	3550.8
666.70	3540.0
667.03	3558.8
667.35	3543.2
667.68	3547.8
668.00	3525.6
668.33	3535.8
668.65	3541.2
668.98	3526.6
669.30	3518.4
669.63	3514.2
669.95	3511.0
670.28	3525.6
670.60	3500.0
670.93	3512.4
671.25	3497.4
671.58	3503.4
671.90	3510.4
672.22	3502.0
672.55	3483.4
672.87	3491.4
673.20	3485.0
673.52	3491.4
673.85	3468.8
674.17	3466.2
674.50	3477.8
674.82	3457.2
675.14	3459.6
675.47	3463.2
675.79	3452.2
676.12	3437.0
676.44	3461.0
676.76	3444.4
677.09	3421.2
677.41	3399.4
677.74	3416.2
678.06	3425.6
678.38	3413.6
678.71	3419.6
679.03	3398.4
679.36	3389.4
679.68	3395.0
680.00	3380.4
680.33	3400.2
680.65	3363.4
680.97	3370.4
681.30	3354.6
681.62	3353.0
681.94	3366.8
682.27	3353.2
682.59	3342.0
682.91	3335.2
683.24	3348.4
683.56	3343.2
683.88	3327.6
684.21	3311.8
684.53	3308.2
684.85	3306.2
685.17	3297.6
685.50	3283.8
685.82	3293.0
686.14	3272.6
686.47	3282.8
686.79	3265.4
687.11	3256.0
687.43	3280.6
687.76	3258.0
688.08	3259.6
688.40	3232.2
688.72	3233.6
689.05	3211.8
689.37	3212.6
689.69	3194.8
690.01	3212.0
690.34	3190.8
690.66	3186.4
690.98	3174.4
691.30	3173.6
691.62	3159.6
691.95	3157.0
692.27	3173.2
692.59	3141.8
692.91	3144.6
693.23	3146.2
693.56	3110.4
693.88	3123.6
694.20	3110.8
694.52	3096.8
694.84	3112.6
695.16	3082.2
695.48	3093.2
695.81	3069.6
696.13	3075.4
696.45	3065.8
696.77	3056.0
697.09	3056.2
697.41	3050.0
697.73	3028.6
698.06	3032.4
698.38	3021.4
698.70	3014.2
699.02	3015.0
699.34	2997.2
699.66	3005.2
699.98	2991.2
700.30	2985.2
700.62	2988.4
700.94	2974.6
701.27	2966.2
701.59	2962.2
701.91	2944.2
702.23	2948.2
702.55	2945.4
702.87	2932.2
703.19	2918.6
703.51	2922.4
703.83	2925.0
704.15	2915.8
704.47	2903.2
704.79	2900.2
705.11	2861.8
705.43	2866.2
705.75	2868.4
706.07	2859.6
706.39	2865.6
706.71	2859.2
707.03	2849.6
707.35	2823.0
707.67	2823.8
707.99	2828.4
708.31	2810.0
708.63	2827.4
708.95	2812.2
709.27	2810.0
709.59	2788.0
709.91	2787.4
710.23	2774.0
710.55	2780.4
710.87	2773.8
711.19	2755.4
711.51	2751.2
711.83	2764.6
712.15	2750.0
712.46	2731.2
712.78	2711.8
713.10	2722.6
713.42	2715.6
713.74	2708.4
714.06	2698.8
714.38	2698.6
714.70	2695.0
715.02	2685.0
715.34	2691.6
715.65	2684.6
715.97	2675.8
716.29	2673.0
716.61	2640.6
716.93	2642.2
717.25	2640.4
717.57	2630.8
717.88	2612.4
718.20	2601.6
718.52	2616.2
718.84	2605.4
719.16	2599.2
719.48	2587.4
719.79	2588.6
720.11	2564.2
720.43	2587.4
720.75	2581.0
721.07	2569.0
721.39	2563.4
721.70	2558.6
722.02	2533.2
722.34	2532.8
722.66	2524.2
722.97	2520.8
723.29	2511.4
723.61	2512.6
723.93	2500.4
724.25	2500.8
724.56	2499.0
724.88	2490.6
725.20	2485.2
725.52	2486.6
725.83	2462.8
726.15	2459.2
726.47	2474.0
726.78	2447.6
727.10	2451.0
727.42	2454.2
727.74	2439.6
728.05	2429.0
728.37	2426.6
728.69	2417.2
729.00	2402.6
729.32	2412.2
729.64	2402.2
729.96	2400.0
730.27	2384.0
730.59	2366.0
730.91	2369.6
731.22	2368.4
731.54	2356.4
731.86	2361.0
732.17	2352.0
732.49	2345.2
732.80	2350.6
733.12	2338.6
733.44	2327.2
733.75	2315.8
734.07	2317.6
734.39	2318.0
734.70	2302.4
735.02	2282.6
735.33	2304.4
735.65	2270.4
735.97	2270.4
736.28	2263.2
736.60	2253.4
736.91	2264.0
737.23	2256.6
737.55	2242.4
737.86	2242.0
738.18	2226.4
738.49	2220.2
738.81	2230.2
739.12	2223.2
739.44	2215.4
739.76	2199.0
740.07	2201.2
740.39	2192.6
740.70	2185.8
741.02	2178.4
741.33	2188.6
741.65	2172.2
741.96	2161.0
742.28	2189.2
742.59	2145.8
742.91	2144.8
743.22	2128.8
743.54	2136.4
743.85	2135.6
744.17	2116.8
744.48	2119.8
744.80	2100.2
745.11	2115.8
745.43	2098.8
745.74	2094.0
746.06	2078.2
746.37	2087.2
746.68	2056.4
747.00	2070.0
747.31	2059.2
747.63	2042.8
747.94	2041.6
748.26	2042.6
748.57	2040.2
748.88	2019.8
749.20	2019.8
749.51	2008.8
749.83	2012.8
750.14	1995.0
750.45	1975.4
750.77	2004.0
751.08	1986.8
751.40	1985.2
751.71	1972.4
752.02	1967.8
752.34	1962.0
752.65	1957.6
752.96	1949.8
753.28	1953.4
753.59	1934.6
753.91	1929.0
754.22	1921.6
754.53	1906.2
754.85	1897.6
755.16	1884.2
755.47	1907.2
755.79	1871.6
756.10	1879.0
756.41	1863.4
756.72	1870.4
757.04	1858.4
757.35	1851.8
757.66	1847.8
757.98	1842.8
758.29	1827.0
758.60	1824.6
758.92	1832.0
759.23	1826.4
759.54	1801.0
759.85	1809.0
760.17	1807.0
760.48	1783.4
760.79	1775.8
761.10	1781.2
761.42	1757.6
761.73	1745.8
762.04	1745.6
762.35	1747.6
762.66	1741.8
762.98	1729.6
763.29	1721.2
763.60	1715.2
763.91	1711.4
764.23	1707.0
764.54	1710.0
764.85	1702.4
765.16	1694.0
765.47	1663.2
765.78	1679.8
766.10	1667.6
766.41	1660.2
766.72	1659.0
767.03	1649.6
767.34	1632.6
767.65	1631.2
767.97	1633.0
768.28	1608.6
768.59	1624.6
768.90	1601.2
769.21	1588.8
769.52	1591.4
769.83	1576.4
770.14	1579.6
770.46	1572.2
770.77	1567.8
771.08	1550.6
771.39	1536.2
771.70	1533.8
772.01	1533.8
772.32	1523.8
772.63	1519.0
772.94	1530.8
773.25	1508.4
773.56	1504.8
773.88	1506.8
774.19	1493.0
774.50	1479.6
774.81	1493.0
775.12	1486.2
775.43	1474.6
775.74	1468.6
776.05	1479.8
776.36	1462.4
776.67	1451.6
776.98	1465.0
777.29	1443.6
777.60	1446.6
777.91	1438.6
778.22	1440.0
778.53	1425.0
778.84	1432.0
779.15	1414.6
779.46	1419.0
779.77	1417.6
780.08	1410.2
780.39	1411.2
780.70	1400.4
781.01	1398.4
781.32	1396.0
781.63	1390.6
781.94	1392.0
782.25	1385.0
782.55	1378.2
782.86	1381.2
783.17	1371.2
783.48	1365.6
783.79	1370.4
784.10	1363.8
784.41	1363.2
784.72	1360.2
785.03	1366.6
785.34	1362.0
785.65	1343.2
785.95	1345.0
786.26	1348.4
786.57	1342.2
786.88	1343.6
787.19	1327.6
787.50	1327.6
787.81	1338.6
788.12	1335.8
788.42	1321.2
788.73	1315.6
789.04	1314.8
789.35	1296.6
789.66	1302.4
789.97	1293.0
790.27	1293.0
790.58	1293.6
790.89	1276.2
791.20	1269.2
791.51	1280.8
791.81	1274.8
792.12	1281.2
792.43	1268.6
792.74	1271.8
793.05	1263.8
793.35	1260.8
793.66	1247.6
793.97	1250.8
794.28	1246.4
794.58	1245.8
794.89	1237.8
795.20	1233.6
795.51	1235.8
795.81	1222.0
796.12	1219.8
796.43	1214.2
796.74	1205.2
797.04	1195.2
797.35	1206.8
797.66	1194.0
797.96	1196.4
798.27	1200.4
798.58	1205.8
798.89	1190.8
799.19	1182.4
799.50	1195.4
799.81	1167.8
800.11	1169.2
800.42	1165.0
800.73	1168.2
801.03	1162.6
801.34	1160.0
801.65	1154.4
801.95	1144.0
802.26	1135.8
802.57	1131.4
802.87	1135.0
803.18	1133.4
803.48	1136.4
803.79	1129.2
804.10	1126.4
804.40	1107.6
804.71	1109.2
805.02	1109.4
805.32	1103.4
805.63	1096.8
805.93	1098.8
806.24	1096.0
806.55	1097.2
806.85	1080.8
807.16	1085.6
807.46	1073.8
807.77	1061.0
808.07	1070.4
808.38	1065.4
808.68	1058.4
808.99	1058.8
809.30	1045.2
809.60	1048.2
809.91	1044.6
810.21	1036.6
810.52	1035.2
810.82	1034.4
811.13	1025.4
811.43	1020.0
811.74	1027.8
812.04	1023.8
812.35	1014.0
812.65	1007.6
812.96	1010.8
813.26	996.4
813.57	993.2
813.87	991.2
814.18	994.4
814.48	977.6
814.79	979.4
815.09	983.0
815.39	977.2
815.70	968.6
816.00	981.6
816.31	956.0
816.61	962.4
816.92	950.6
817.22	950.6
817.52	954.2
817.83	952.0
818.13	941.2
818.44	930.0
818.74	937.8
819.04	932.0
819.35	923.8
819.65	925.8
819.96	920.2
820.26	907.2
820.56	910.4
820.87	900.6
821.17	908.6
821.47	912.2
821.78	894.4
822.08	898.4
822.39	889.0
822.69	890.4
822.99	891.6
823.30	882.4
823.60	879.0
823.90	889.0
824.21	878.2
824.51	873.4
824.81	860.2
825.11	865.4
825.42	866.0
825.72	853.2
826.02	861.6
826.33	845.8
826.63	845.6
826.93	849.2
827.23	839.8
827.54	833.4
827.84	829.8
828.14	833.6
828.44	827.0
828.75	817.0
829.05	815.8
829.35	810.6
829.65	814.6
829.96	804.4
830.26	800.0
830.56	816.0
830.86	801.6
831.17	803.2
831.47	799.4
831.77	794.4
832.07	783.6
832.37	782.0
832.68	772.4
832.98	775.0
833.28	783.2
833.58	773.4
833.88	762.4
834.18	765.4
834.49	766.4
834.79	766.8
835.09	760.4
835.39	750.6
835.69	750.0
835.99	748.4
836.29	746.2
836.60	748.4
836.90	742.8
837.20	740.0
837.50	734.4
837.80	732.6
838.10	727.6
838.40	729.2
838.70	725.6
839.00	724.0
839.31	726.0
839.61	715.2
839.91	713.4
840.21	711.2
840.51	706.2
840.81	699.0
841.11	709.8
841.41	702.4
841.71	694.6
842.01	703.0
842.31	691.0
842.61	696.6
842.91	691.0
843.21	689.0
843.51	681.2
843.81	682.0
844.11	684.8
844.41	676.6
844.71	668.2
845.01	672.6
845.31	669.2
845.61	670.8
845.91	666.0
846.21	651.8
846.51	666.4
846.81	657.6
847.11	660.2
847.41	646.8
847.71	646.2
848.01	644.8
848.31	640.0
848.61	644.4
848.91	639.6
849.21	636.4
849.51	652.2
849.81	637.8
850.11	627.0
850.40	624.4
850.70	618.0
851.00	627.2
851.30	622.6
851.60	612.6
851.90	613.2
852.20	618.2
852.50	606.2
852.80	618.8
853.10	608.8
853.39	604.2
853.69	598.6
853.99	596.0
854.29	590.6
854.59	590.6
854.89	593.0
855.18	590.0
855.48	584.8
855.78	583.6
856.08	583.2
856.38	584.2
856.68	577.6
856.97	572.4
857.27	570.4
857.57	580.0
857.87	565.2
858.17	572.4
858.46	563.4
858.76	571.2
859.06	560.8
859.36	554.8
859.66	557.4
859.95	552.4
860.25	553.2
860.55	550.2
860.85	547.2
861.14	540.4
861.44	542.0
861.74	543.2
862.04	534.8
862.33	535.4
862.63	529.2
862.93	529.8
863.22	521.8
863.52	528.4
863.82	522.4
864.12	527.4
864.41	514.8
864.71	516.2
865.01	514.4
865.30	513.6
865.60	510.4
865.90	503.6
866.19	504.0
866.49	497.2
866.79	496.8
867.08	494.8
867.38	492.4
867.68	487.2
867.97	488.4
868.27	489.8
868.56	488.2
868.86	479.6
869.16	488.4
869.45	476.6
869.75	473.4
870.05	474.2
870.34	475.2
870.64	475.4
870.93	473.0
871.23	468.2
871.53	460.6
871.82	459.8
872.12	463.6
872.41	461.6
872.71	452.4
873.00	453.0
873.30	446.4
873.59	447.2
873.89	446.0
874.19	440.8
874.48	447.6
874.78	442.2
875.07	437.4
875.37	431.6
875.66	429.6
875.96	429.8
876.25	429.6
876.55	427.4
876.84	424.2
877.14	428.4
877.43	420.4
877.73	416.4
878.02	414.0
878.32	417.8
878.61	415.2
878.91	409.4
879.20	404.2
879.49	409.2
879.79	404.4
880.08	406.0
880.38	398.6
880.67	396.6
880.97	396.8
881.26	392.8
881.56	391.4
881.85	387.4
882.14	388.8
882.44	383.4
882.73	383.8
883.03	385.0
883.32	381.4
883.61	374.6
883.91	376.8
884.20	372.4
884.50	369.8
884.79	368.6
885.08	364.4
885.38	367.4
885.67	357.4
885.96	358.8
886.26	358.2
886.55	362.6
886.84	353.2
887.14	351.0
887.43	349.0
887.72	354.2
888.02	342.6
888.31	345.0
888.60	342.8
888.90	339.6
889.19	336.6
889.48	339.4
889.77	335.4
890.07	329.0
890.36	328.6
890.65	330.0
890.95	325.4
891.24	325.4
891.53	318.4
891.82	320.8
892.12	314.2
892.41	310.0
892.70	312.6
892.99	311.0
893.29	309.0
893.58	308.6
893.87	307.0
894.16	303.8
894.45	300.4
894.75	305.8
895.04	297.4
895.33	295.8
895.62	294.2
895.91	295.0
896.21	291.2
896.50	291.8
896.79	285.8
897.08	284.4
897.37	281.4
897.66	281.2
897.96	285.4
898.25	282.6
898.54	282.8
898.83	278.4
899.12	276.0
899.41	278.6
899.70	271.8
900.00	276.2
900.29	272.8
900.58	274.8
900.87	272.0
901.16	271.6
901.45	266.0
901.74	263.8
902.03	260.8
902.32	264.8
902.62	267.4
902.91	260.2
903.20	257.0
903.49	256.6
903.78	254.8
904.07	257.2
904.36	255.0
904.65	252.0
904.94	253.4
905.23	256.0
905.52	245.4
905.81	244.6
906.10	247.0
906.39	247.0
906.68	241.6
906.97	239.6
907.26	242.8
907.55	240.4
907.84	238.8
908.13	242.8
908.42	240.0
908.71	240.6
909.00	235.2
909.29	232.8
909.58	230.6
909.87	234.6
910.16	237.2
910.45	230.8
910.74	233.0
911.03	231.4
911.32	229.0
911.61	224.2
911.90	225.2
912.19	222.8
912.47	224.6
912.76	224.2
913.05	224.4
913.34	226.2
913.63	218.2
913.92	222.0
914.21	219.8
914.50	216.4
914.79	214.6
915.07	217.6
915.36	213.2
915.65	215.6
915.94	211.8
916.23	218.0
916.52	217.0
916.81	218.0
917.09	212.0
917.38	212.0
917.67	209.0
917.96	202.0
918.25	204.6
918.54	203.0
918.82	201.6
919.11	203.6
919.40	202.2
919.69	199.8
919.98	198.8
920.26	196.8
920.55	196.6
920.84	201.2
921.13	196.6
921.42	196.4
921.70	191.0
921.99	191.4
922.28	194.0
922.57	191.0
922.85	181.6
923.14	188.0
923.43	186.0
923.71	184.6
924.00	183.2
924.29	181.0
924.58	181.6
924.86	184.2
925.15	183.4
925.44	182.4
925.72	180.4
926.01	178.4
926.30	176.4
926.59	176.6
926.87	174.2
927.16	176.0
927.45	175.0
927.73	169.4
928.02	169.4
928.31	167.6
928.59	165.4
928.88	171.6
929.16	163.6
929.45	166.0
929.74	161.0
930.02	161.4
930.31	157.6
930.60	160.8
930.88	160.4
931.17	158.2
931.45	161.6
931.74	156.6
932.03	158.4
932.31	153.8
932.60	154.8
932.88	156.4
933.17	153.2
933.45	153.0
933.74	150.8
934.03	147.0
934.31	145.0
934.60	147.2
934.88	153.6
935.17	149.6
935.45	141.4
935.74	144.0
936.02	143.8
936.31	139.0
936.59	141.8
936.88	139.0
937.16	140.2
937.45	137.6
937.73	135.8
938.02	137.2
938.30	141.8
938.59	134.4
938.87	132.4
939.16	132.0
939.44	132.6
939.73	128.2
940.01	125.8
940.30	131.4
940.58	128.6
940.86	126.6
941.15	124.2
941.43	124.0
941.72	120.6
942.00	124.2
942.29	119.0
942.57	120.8
942.85	116.6
943.14	121.0
943.42	119.0
943.71	119.2
943.99	116.6
944.27	113.4
944.56	115.0
944.84	113.4
945.12	114.0
945.41	107.8
945.69	107.8
945.98	104.8
946.26	108.2
946.54	108.0
946.83	107.4
947.11	107.4
947.39	104.8
947.68	104.0
947.96	102.6
948.24	103.0
948.53	101.2
948.81	102.2
949.09	100.4
949.37	99.2
949.66	97.2
949.94	99.0
950.22	94.4
950.51	97.8
950.79	91.6
951.07	94.2
951.35	91.4
951.64	92.8
951.92	91.2
952.20	90.8
952.48	89.8
952.77	88.6
953.05	87.4
953.33	86.0
953.61	84.6
953.89	84.6
954.18	89.4
954.46	85.4
954.74	83.4
955.02	84.6
955.30	78.2
955.59	81.8
955.87	75.6
956.15	82.2
956.43	80.2
956.71	78.2
957.00	76.8
957.28	77.8
957.56	73.2
957.84	73.0
958.12	73.6
958.40	73.2
958.68	73.0
958.97	71.6
959.25	70.6
959.53	73.4
959.81	72.6
960.09	72.2
960.37	72.8
960.65	78.2
960.93	69.4
961.21	69.8
961.49	68.6
961.78	67.6
962.06	64.8
962.34	65.2
962.62	64.6
962.90	67.2
963.18	61.8
963.46	61.6
963.74	61.4
964.02	62.0
964.30	58.6
964.58	60.8
964.86	56.4
965.14	61.0
965.42	63.8
965.70	57.8
965.98	59.6
966.26	57.6
966.54	56.4
966.82	59.2
967.10	58.0
967.38	57.2
967.66	55.0
967.94	57.2
968.22	52.8
968.50	54.2
968.78	56.0
969.06	58.0
969.34	52.4
969.62	55.6
969.90	51.4
970.18	52.0
970.46	52.2
970.73	50.6
971.01	49.4
971.29	51.2
971.57	50.8
971.85	57.2
972.13	49.8
972.41	47.6
972.69	48.2
972.97	49.0
973.24	50.0
973.52	47.4
973.80	47.2
974.08	48.4
974.36	46.0
974.64	46.6
974.92	44.4
975.19	46.4
975.47	44.8
975.75	45.4
976.03	44.2
976.31	43.6
976.59	42.8
976.86	44.4
977.14	42.0
977.42	43.6
977.70	41.8
977.98	43.2
978.25	43.8
978.53	41.2
978.81	38.6
979.09	41.2
979.37	40.6
979.64	40.8
979.92	38.6
980.20	38.8
980.48	37.8
980.75	41.6
981.03	36.2
981.31	37.6
981.58	37.8
981.86	35.0
982.14	33.8
982.42	37.2
982.69	36.0
982.97	37.2
983.25	33.6
983.52	36.2
983.80	32.8
984.08	32.4
984.35	37.0
984.63	35.6
984.91	32.6
985.18	34.8
985.46	34.4
985.74	33.4
986.01	33.8
986.29	34.4
986.57	32.2
986.84	33.4
987.12	35.4
987.40	31.6
987.67	33.2
987.95	32.6
988.22	29.2
988.50	29.0
988.78	29.8
989.05	31.6
989.33	25.0
989.60	27.6
989.88	28.6
990.16	28.6
990.43	28.4
990.71	26.2
990.98	26.8
991.26	28.6
991.53	28.0
991.81	24.2
992.08	23.8
992.36	24.8
992.64	24.6
992.91	24.0
993.19	27.2
993.46	24.6
993.74	26.6
994.01	27.6
994.29	24.4
994.56	25.6
994.84	22.8
995.11	24.6
995.39	24.0
995.66	25.8
995.93	26.8
996.21	24.6
996.48	22.4
996.76	24.6
>>>>>End Spectral Data<<<<<
